SpectraSuite Data File
++++++++++++++++++++++++++++++++++++
Date: Mon Oct 22 15:14:18 EDT 2012
User: group
Dark Spectrum Present: No
Reference Spectrum Present: No
Number of Sampled Component Spectra: 1
Spectrometers: USB2E7196
Integration Time (usec): 91000 (USB2E7196)
Spectra Averaged: 30 (USB2E7196)
Boxcar Smoothing: 10 (USB2E7196)
Correct for Electrical Dark: No (USB2E7196)
Strobe/Lamp Enabled: No (USB2E7196)
Correct for Detector Non-linearity: No (USB2E7196)
Correct for Stray Light: No (USB2E7196)
Number of Pixels in Processed Spectrum: 2048
>>>>>Begin Processed Spectral Data<<<<<
339.09	0.00
339.48	223.67
339.86	224.37
340.24	226.20
340.63	228.57
341.01	233.50
341.39	230.93
341.78	232.97
342.16	232.83
342.54	233.27
342.93	221.80
343.31	232.98
343.69	233.48
344.07	233.98
344.46	234.46
344.84	234.82
345.22	234.88
345.60	235.12
345.99	235.27
346.37	235.37
346.75	235.47
347.13	235.52
347.52	235.60
347.90	235.72
348.28	235.71
348.66	235.77
349.05	235.75
349.43	235.88
349.81	235.88
350.19	235.93
350.57	236.00
350.96	236.09
351.34	236.18
351.72	236.31
352.10	236.40
352.48	236.46
352.87	236.51
353.25	236.62
353.63	236.68
354.01	236.74
354.39	236.90
354.77	237.01
355.15	237.15
355.54	237.20
355.92	237.28
356.30	237.36
356.68	237.59
357.06	237.67
357.44	237.71
357.82	237.80
358.20	237.85
358.58	237.97
358.97	238.05
359.35	238.22
359.73	238.34
360.11	238.44
360.49	238.47
360.87	238.58
361.25	238.66
361.63	238.80
362.01	238.91
362.39	238.92
362.77	239.01
363.15	239.09
363.53	239.10
363.91	239.09
364.29	239.14
364.67	238.95
365.05	239.02
365.43	239.03
365.81	239.10
366.19	239.25
366.57	239.41
366.95	239.40
367.33	239.29
367.71	239.25
368.09	239.26
368.47	239.27
368.85	239.23
369.23	239.27
369.61	239.22
369.99	239.22
370.37	239.24
370.75	239.31
371.13	239.27
371.51	239.20
371.89	239.20
372.27	239.23
372.65	239.20
373.03	239.12
373.41	239.04
373.78	238.95
374.16	238.75
374.54	238.57
374.92	238.51
375.30	238.50
375.68	238.45
376.06	238.39
376.44	238.35
376.82	238.33
377.19	238.27
377.57	238.18
377.95	238.10
378.33	238.10
378.71	237.87
379.09	237.79
379.47	237.89
379.84	237.83
380.22	237.73
380.60	237.63
380.98	237.61
381.36	237.59
381.73	237.51
382.11	237.49
382.49	237.47
382.87	237.46
383.25	237.44
383.62	237.67
384.00	237.59
384.38	237.54
384.76	237.48
385.13	237.50
385.51	237.47
385.89	237.39
386.27	237.31
386.64	237.36
387.02	237.29
387.40	237.16
387.78	237.13
388.15	237.13
388.53	237.15
388.91	237.06
389.29	237.00
389.66	237.04
390.04	237.05
390.42	237.03
390.79	236.98
391.17	236.89
391.55	236.59
391.92	236.60
392.30	236.59
392.68	236.59
393.05	236.57
393.43	236.55
393.81	236.57
394.18	236.53
394.56	236.48
394.94	236.54
395.31	236.58
395.69	236.54
396.06	236.56
396.44	236.52
396.82	236.57
397.19	236.70
397.57	236.73
397.95	236.80
398.32	236.77
398.70	236.83
399.07	237.02
399.45	237.05
399.82	237.09
400.20	237.12
400.58	237.22
400.95	237.21
401.33	237.38
401.70	237.69
402.08	237.78
402.45	237.92
402.83	238.13
403.20	238.28
403.58	238.50
403.95	238.65
404.33	238.92
404.71	239.16
405.08	239.47
405.46	239.64
405.83	239.90
406.21	240.18
406.58	240.52
406.96	240.76
407.33	241.15
407.70	241.63
408.08	242.22
408.45	242.66
408.83	243.19
409.20	243.67
409.58	243.97
409.95	244.62
410.33	245.25
410.70	245.79
411.08	246.53
411.45	247.29
411.82	248.18
412.20	249.02
412.57	250.06
412.95	250.90
413.32	252.02
413.69	253.16
414.07	254.41
414.44	255.68
414.82	257.07
415.19	258.70
415.56	260.28
415.94	261.96
416.31	263.89
416.68	265.80
417.06	268.03
417.43	270.24
417.81	272.63
418.18	275.11
418.55	277.86
418.93	280.68
419.30	283.63
419.67	286.72
420.04	290.01
420.42	293.40
420.79	297.28
421.16	301.23
421.54	305.31
421.91	309.55
422.28	314.03
422.66	318.83
423.03	323.33
423.40	328.20
423.77	333.36
424.15	338.62
424.52	344.24
424.89	350.23
425.26	356.05
425.64	361.67
426.01	367.86
426.38	374.27
426.75	380.83
427.13	387.63
427.50	394.80
427.87	402.31
428.24	409.82
428.61	417.15
428.99	425.15
429.36	433.86
429.73	442.46
430.10	451.16
430.47	459.98
430.85	469.40
431.22	479.18
431.59	489.51
431.96	499.57
432.33	510.60
432.70	521.51
433.08	534.07
433.45	546.04
433.82	557.99
434.19	571.20
434.56	584.16
434.93	596.77
435.30	609.39
435.68	623.25
436.05	636.98
436.42	650.71
436.79	663.37
437.16	676.99
437.53	691.34
437.90	705.51
438.27	719.49
438.64	733.86
439.01	747.42
439.38	759.66
439.75	771.51
440.13	785.02
440.50	797.33
440.87	807.97
441.24	818.71
441.61	830.50
441.98	839.50
442.35	849.92
442.72	860.25
443.09	870.09
443.46	876.36
443.83	880.72
444.20	884.64
444.57	889.87
444.94	892.61
445.31	895.31
445.68	897.60
446.05	898.93
446.42	898.17
446.79	897.02
447.16	895.47
447.53	894.26
447.90	889.21
448.27	884.35
448.64	877.13
449.01	872.13
449.37	862.97
449.74	854.23
450.11	843.47
450.48	831.93
450.85	820.34
451.22	810.31
451.59	801.10
451.96	791.99
452.33	779.93
452.70	768.99
453.07	756.18
453.43	743.15
453.80	730.54
454.17	718.37
454.54	706.84
454.91	694.63
455.28	682.57
455.65	671.40
456.02	660.19
456.38	651.04
456.75	639.29
457.12	629.75
457.49	620.10
457.86	610.98
458.23	603.14
458.59	594.47
458.96	585.81
459.33	577.98
459.70	570.07
460.07	563.91
460.43	556.69
460.80	549.78
461.17	543.84
461.54	537.64
461.91	531.69
462.27	525.55
462.64	520.39
463.01	514.91
463.38	509.52
463.74	504.18
464.11	499.28
464.48	495.19
464.85	490.69
465.21	487.19
465.58	483.51
465.95	479.09
466.32	475.54
466.68	471.81
467.05	467.94
467.42	464.29
467.78	460.50
468.15	456.88
468.52	454.16
468.88	450.80
469.25	447.70
469.62	445.19
469.98	442.54
470.35	440.03
470.72	437.61
471.08	435.08
471.45	432.97
471.82	430.64
472.18	428.17
472.55	426.42
472.92	424.45
473.28	422.79
473.65	421.10
474.02	419.20
474.38	417.82
474.75	416.74
475.11	415.52
475.48	414.47
475.85	413.70
476.21	412.97
476.58	412.22
476.94	411.62
477.31	410.84
477.67	410.24
478.04	409.88
478.41	409.77
478.77	409.72
479.14	409.45
479.50	409.74
479.87	410.08
480.23	410.38
480.60	410.57
480.96	410.71
481.33	411.20
481.69	411.74
482.06	412.19
482.42	412.49
482.79	413.16
483.15	414.10
483.52	415.25
483.88	416.16
484.25	417.28
484.61	418.50
484.98	419.81
485.34	421.41
485.71	422.99
486.07	424.71
486.44	426.26
486.80	428.17
487.17	429.99
487.53	432.09
487.90	434.20
488.26	436.63
488.62	439.13
488.99	441.66
489.35	444.27
489.72	447.13
490.08	450.25
490.44	453.30
490.81	456.49
491.17	459.62
491.54	463.14
491.90	466.63
492.26	470.24
492.63	474.09
492.99	477.77
493.36	481.76
493.72	485.90
494.08	490.08
494.45	494.50
494.81	499.01
495.17	503.54
495.54	508.44
495.90	513.40
496.26	518.30
496.63	523.31
496.99	528.70
497.35	534.15
497.72	539.67
498.08	545.15
498.44	550.68
498.80	556.47
499.17	562.25
499.53	568.12
499.89	574.15
500.26	580.20
500.62	586.17
500.98	592.48
501.34	598.60
501.71	605.02
502.07	611.38
502.43	617.82
502.79	624.31
503.16	630.83
503.52	637.36
503.88	643.98
504.24	650.48
504.60	656.80
504.97	663.21
505.33	669.71
505.69	676.44
506.05	683.15
506.41	689.70
506.78	696.15
507.14	702.78
507.50	709.39
507.86	715.80
508.22	722.34
508.59	728.49
508.95	734.78
509.31	741.05
509.67	747.05
510.03	752.91
510.39	758.74
510.75	764.42
511.12	769.92
511.48	775.30
511.84	780.77
512.20	786.06
512.56	791.37
512.92	796.33
513.28	801.23
513.64	805.74
514.00	810.10
514.37	814.44
514.73	818.36
515.09	822.20
515.45	825.99
515.81	829.67
516.17	833.13
516.53	836.27
516.89	839.47
517.25	842.71
517.61	845.77
517.97	848.45
518.33	850.75
518.69	852.96
519.05	855.06
519.41	856.98
519.77	858.96
520.13	860.51
520.49	862.00
520.85	863.36
521.21	864.70
521.57	866.06
521.93	866.73
522.29	867.54
522.65	868.11
523.01	868.74
523.37	868.99
523.73	869.45
524.09	869.57
524.45	869.41
524.81	869.24
525.17	868.86
525.53	868.52
525.89	868.32
526.25	868.16
526.61	867.71
526.97	867.21
527.33	866.80
527.68	866.40
528.04	865.80
528.40	864.73
528.76	863.96
529.12	862.93
529.48	862.34
529.84	861.36
530.20	860.47
530.56	859.27
530.91	858.55
531.27	857.58
531.63	856.88
531.99	856.15
532.35	854.95
532.71	854.08
533.07	853.19
533.42	852.28
533.78	851.30
534.14	850.37
534.50	849.34
534.86	848.44
535.21	847.14
535.57	846.33
535.93	845.28
536.29	844.46
536.65	843.94
537.00	843.16
537.36	842.67
537.72	842.05
538.08	841.64
538.44	840.67
538.79	839.97
539.15	839.25
539.51	838.70
539.87	838.53
540.22	837.77
540.58	837.29
540.94	836.74
541.29	836.11
541.65	835.64
542.01	835.54
542.37	835.03
542.72	834.87
543.08	834.37
543.44	834.57
543.79	833.93
544.15	833.57
544.51	833.63
544.87	833.33
545.22	833.21
545.58	833.08
545.94	833.14
546.29	832.99
546.65	832.74
547.01	832.41
547.36	832.22
547.72	832.27
548.07	832.24
548.43	832.35
548.79	832.46
549.14	832.59
549.50	832.96
549.86	833.31
550.21	833.76
550.57	834.33
550.92	834.51
551.28	835.22
551.64	835.60
551.99	835.76
552.35	836.35
552.70	836.93
553.06	837.35
553.41	837.82
553.77	838.55
554.13	839.36
554.48	840.24
554.84	841.08
555.19	842.31
555.55	843.60
555.90	844.74
556.26	845.79
556.61	846.96
556.97	847.60
557.32	848.52
557.68	849.55
558.03	850.57
558.39	851.85
558.74	853.16
559.10	854.28
559.45	855.64
559.81	857.20
560.16	858.50
560.52	859.94
560.87	861.74
561.23	863.44
561.58	865.44
561.94	867.29
562.29	868.75
562.64	870.29
563.00	871.66
563.35	873.04
563.71	874.60
564.06	875.92
564.42	877.33
564.77	878.55
565.12	879.86
565.48	881.67
565.83	883.31
566.19	885.22
566.54	887.06
566.89	888.61
567.25	889.94
567.60	891.37
567.96	892.94
568.31	894.19
568.66	895.23
569.02	896.10
569.37	896.86
569.72	897.76
570.08	898.45
570.43	899.15
570.78	900.08
571.14	900.92
571.49	901.80
571.84	902.88
572.20	904.11
572.55	905.25
572.90	905.77
573.26	906.35
573.61	906.38
573.96	906.50
574.31	906.66
574.67	906.74
575.02	906.78
575.37	906.87
575.72	906.85
576.08	907.03
576.43	907.01
576.78	907.17
577.13	907.64
577.49	907.96
577.84	908.53
578.19	908.73
578.54	908.88
578.90	909.26
579.25	909.15
579.60	908.69
579.95	907.87
580.30	907.57
580.66	907.32
581.01	907.23
581.36	907.12
581.71	907.08
582.06	906.96
582.42	906.60
582.77	906.00
583.12	905.72
583.47	905.36
583.82	904.85
584.17	904.14
584.53	903.44
584.88	902.76
585.23	901.78
585.58	900.72
585.93	899.62
586.28	898.53
586.63	897.57
586.98	896.55
587.34	895.93
587.69	894.70
588.04	893.39
588.39	892.00
588.74	890.32
589.09	888.86
589.44	887.37
589.79	886.20
590.14	885.08
590.49	883.38
590.84	881.82
591.19	880.59
591.54	879.02
591.89	876.75
592.25	875.05
592.60	872.83
592.95	870.85
593.30	869.06
593.65	867.01
594.00	865.19
594.35	864.48
594.70	862.65
595.05	861.15
595.40	859.27
595.75	857.26
596.10	855.64
596.45	853.40
596.80	851.31
597.15	849.09
597.50	846.84
597.85	845.02
598.19	843.01
598.54	840.63
598.89	838.41
599.24	836.95
599.59	834.78
599.94	833.02
600.29	831.07
600.64	829.02
600.99	826.88
601.34	824.73
601.69	821.46
602.04	819.03
602.39	816.38
602.74	814.12
603.08	812.02
603.43	809.83
603.78	807.92
604.13	806.01
604.48	803.95
604.83	802.07
605.18	800.13
605.53	798.11
605.87	796.21
606.22	794.91
606.57	793.39
606.92	792.01
607.27	790.71
607.62	789.60
607.96	788.35
608.31	786.96
608.66	785.37
609.01	783.85
609.36	782.17
609.70	780.35
610.05	778.44
610.40	776.49
610.75	774.43
611.10	772.40
611.44	769.88
611.79	767.69
612.14	765.26
612.49	762.52
612.83	759.72
613.18	756.81
613.53	753.43
613.88	749.75
614.22	746.32
614.57	742.50
614.92	738.49
615.27	734.72
615.61	731.10
615.96	727.52
616.31	724.06
616.65	720.81
617.00	717.60
617.35	714.45
617.70	711.29
618.04	707.96
618.39	704.95
618.74	702.28
619.08	699.13
619.43	696.01
619.78	692.97
620.12	689.84
620.47	687.21
620.82	684.46
621.16	681.72
621.51	678.99
621.85	676.47
622.20	673.97
622.55	671.26
622.89	668.85
623.24	666.54
623.59	663.99
623.93	661.31
624.28	658.66
624.62	656.01
624.97	653.16
625.32	650.48
625.66	647.62
626.01	644.78
626.35	642.33
626.70	639.80
627.04	637.65
627.39	635.31
627.73	632.76
628.08	630.09
628.43	627.51
628.77	624.58
629.12	621.88
629.46	619.27
629.81	616.64
630.15	613.82
630.50	611.15
630.84	608.47
631.19	605.80
631.53	603.19
631.88	600.47
632.22	598.03
632.57	595.80
632.91	593.28
633.26	590.69
633.60	587.87
633.95	585.03
634.29	581.88
634.64	579.18
634.98	576.23
635.32	573.56
635.67	571.02
636.01	568.69
636.36	566.09
636.70	563.58
637.05	561.02
637.39	558.47
637.73	555.76
638.08	553.41
638.42	551.02
638.77	548.56
639.11	546.15
639.45	543.75
639.80	541.23
640.14	538.83
640.49	536.37
640.83	534.09
641.17	531.88
641.52	529.86
641.86	527.68
642.20	525.81
642.55	523.78
642.89	521.61
643.23	519.42
643.58	517.52
643.92	515.29
644.26	513.30
644.61	511.28
644.95	509.24
645.29	507.05
645.64	505.12
645.98	503.16
646.32	501.32
646.66	499.22
647.01	497.12
647.35	495.27
647.69	493.32
648.04	491.38
648.38	489.53
648.72	487.43
649.06	485.28
649.41	483.04
649.75	481.10
650.09	479.26
650.43	477.36
650.78	474.99
651.12	473.02
651.46	470.98
651.80	469.17
652.14	467.31
652.49	465.52
652.83	463.36
653.17	461.27
653.51	459.16
653.85	457.24
654.20	455.33
654.54	453.21
654.88	451.31
655.22	449.36
655.56	447.47
655.90	445.71
656.25	443.93
656.59	442.13
656.93	440.18
657.27	438.34
657.61	436.36
657.95	434.85
658.29	433.05
658.64	431.34
658.98	429.42
659.32	427.49
659.66	425.59
660.00	423.85
660.34	422.04
660.68	420.20
661.02	418.33
661.36	416.53
661.70	414.80
662.05	413.17
662.39	411.52
662.73	409.81
663.07	408.09
663.41	406.48
663.75	404.88
664.09	403.35
664.43	401.70
664.77	400.14
665.11	398.48
665.45	396.96
665.79	395.44
666.13	393.86
666.47	392.30
666.81	390.75
667.15	389.24
667.49	387.95
667.83	386.65
668.17	385.21
668.51	383.83
668.85	382.56
669.19	381.30
669.53	379.89
669.87	378.47
670.21	377.12
670.55	375.70
670.89	374.50
671.23	373.19
671.57	371.85
671.91	370.68
672.25	369.45
672.58	368.20
672.92	366.93
673.26	365.75
673.60	364.62
673.94	363.46
674.28	362.34
674.62	361.21
674.96	359.94
675.30	358.79
675.64	357.66
675.97	356.42
676.31	355.09
676.65	354.01
676.99	352.99
677.33	351.90
677.67	350.88
678.01	349.77
678.34	348.76
678.68	347.74
679.02	346.57
679.36	345.63
679.70	344.69
680.04	343.63
680.37	342.50
680.71	341.43
681.05	340.42
681.39	339.37
681.73	338.25
682.06	337.40
682.40	336.58
682.74	335.68
683.08	334.83
683.42	333.99
683.75	333.09
684.09	332.09
684.43	331.15
684.77	330.19
685.10	329.19
685.44	328.17
685.78	327.23
686.12	326.32
686.45	325.25
686.79	324.29
687.13	323.54
687.46	322.83
687.80	322.07
688.14	321.22
688.48	320.46
688.81	319.66
689.15	318.87
689.49	317.95
689.82	317.13
690.16	316.25
690.50	315.39
690.83	314.60
691.17	313.76
691.51	312.99
691.84	312.21
692.18	311.43
692.52	310.65
692.85	309.92
693.19	309.27
693.52	308.54
693.86	307.83
694.20	307.04
694.53	306.27
694.87	305.50
695.21	304.78
695.54	303.99
695.88	303.20
696.21	302.34
696.55	301.63
696.88	300.93
697.22	300.19
697.56	299.55
697.89	298.90
698.23	298.32
698.56	297.67
698.90	297.12
699.23	296.43
699.57	295.87
699.90	295.23
700.24	294.64
700.58	294.09
700.91	293.57
701.25	293.15
701.58	292.69
701.92	292.23
702.25	291.69
702.59	291.21
702.92	290.83
703.26	290.39
703.59	289.98
703.93	289.68
704.26	289.29
704.60	288.83
704.93	288.28
705.26	287.74
705.60	287.32
705.93	286.76
706.27	286.39
706.60	285.89
706.94	285.52
707.27	285.00
707.61	284.61
707.94	284.14
708.27	283.59
708.61	283.06
708.94	282.56
709.28	282.07
709.61	281.61
709.94	281.14
710.28	280.65
710.61	280.14
710.95	279.44
711.28	279.06
711.61	278.54
711.95	278.16
712.28	277.71
712.61	277.22
712.95	276.89
713.28	276.50
713.61	276.04
713.95	275.53
714.28	275.16
714.61	274.68
714.95	274.20
715.28	273.67
715.61	273.19
715.95	272.73
716.28	272.24
716.61	271.83
716.95	271.37
717.28	270.99
717.61	270.56
717.94	270.23
718.28	269.72
718.61	269.30
718.94	268.86
719.27	268.50
719.61	268.15
719.94	267.79
720.27	267.38
720.60	267.06
720.94	266.71
721.27	266.29
721.60	265.95
721.93	265.58
722.27	265.34
722.60	265.09
722.93	264.78
723.26	264.55
723.59	264.20
723.93	263.93
724.26	263.60
724.59	263.35
724.92	263.12
725.25	262.87
725.59	262.65
725.92	262.47
726.25	262.17
726.58	261.96
726.91	261.65
727.24	261.43
727.57	261.20
727.91	260.93
728.24	260.74
728.57	260.53
728.90	260.35
729.23	260.04
729.56	259.89
729.89	259.67
730.22	259.50
730.55	259.26
730.89	259.02
731.22	258.79
731.55	258.53
731.88	258.28
732.21	257.97
732.54	257.70
732.87	257.42
733.20	257.27
733.53	257.08
733.86	256.84
734.19	256.59
734.52	256.40
734.85	256.36
735.18	256.22
735.51	256.15
735.84	256.02
736.17	255.91
736.50	255.63
736.83	255.64
737.16	255.40
737.49	255.30
737.82	255.16
738.15	255.07
738.48	254.94
738.81	254.76
739.14	254.59
739.47	254.42
739.80	254.35
740.13	254.23
740.46	253.98
740.79	253.83
741.12	253.65
741.45	253.47
741.78	253.15
742.11	252.98
742.44	252.76
742.77	252.58
743.10	252.36
743.43	252.20
743.75	251.80
744.08	251.86
744.41	251.67
744.74	251.47
745.07	251.25
745.40	251.15
745.73	251.01
746.06	250.87
746.39	250.80
746.71	250.53
747.04	250.29
747.37	250.09
747.70	249.97
748.03	249.83
748.36	249.69
748.68	249.51
749.01	249.29
749.34	249.09
749.67	248.98
750.00	248.88
750.33	248.88
750.65	248.81
750.98	248.50
751.31	248.39
751.64	248.22
751.97	248.20
752.29	248.07
752.62	247.91
752.95	247.80
753.28	247.61
753.60	247.54
753.93	247.48
754.26	247.46
754.59	247.24
754.91	247.14
755.24	247.01
755.57	246.90
755.90	246.83
756.22	246.70
756.55	246.50
756.88	246.36
757.20	246.09
757.53	245.96
757.86	245.83
758.19	245.73
758.51	245.64
758.84	245.46
759.17	245.31
759.49	245.24
759.82	245.21
760.15	245.17
760.47	245.03
760.80	244.88
761.13	244.79
761.45	244.72
761.78	244.65
762.11	244.57
762.43	244.52
762.76	244.39
763.08	244.32
763.41	244.25
763.74	244.13
764.06	244.03
764.39	243.92
764.71	243.80
765.04	243.67
765.37	243.58
765.69	243.50
766.02	243.40
766.34	243.30
766.67	243.18
767.00	243.11
767.32	243.17
767.65	243.27
767.97	243.17
768.30	243.09
768.62	242.96
768.95	242.84
769.27	242.80
769.60	242.80
769.92	242.68
770.25	242.66
770.57	242.63
770.90	242.61
771.22	242.52
771.55	242.49
771.87	242.45
772.20	242.41
772.52	242.52
772.85	242.74
773.17	242.65
773.50	242.58
773.82	242.46
774.15	242.34
774.47	242.12
774.80	242.02
775.12	242.04
775.45	242.00
775.77	242.01
776.09	241.95
776.42	241.85
776.74	241.82
777.07	241.68
777.39	241.60
777.72	241.51
778.04	241.53
778.36	241.43
778.69	241.38
779.01	241.34
779.33	241.13
779.66	240.75
779.98	240.74
780.31	240.71
780.63	240.71
780.95	240.72
781.28	240.67
781.60	240.63
781.92	240.54
782.25	240.54
782.57	240.47
782.89	240.39
783.22	240.32
783.54	240.28
783.86	240.27
784.19	240.23
784.51	240.28
784.83	240.20
785.16	240.19
785.48	240.16
785.80	240.14
786.12	240.13
786.45	240.15
786.77	240.11
787.09	240.07
787.42	240.04
787.74	239.97
788.06	239.96
788.38	239.97
788.71	239.93
789.03	239.87
789.35	239.88
789.67	239.83
789.99	239.83
790.32	239.82
790.64	239.85
790.96	240.08
791.28	240.01
791.61	239.99
791.93	239.99
792.25	239.96
792.57	240.07
792.89	240.02
793.21	239.99
793.54	239.97
793.86	239.93
794.18	239.89
