SpectraSuite Data File
++++++++++++++++++++++++++++++++++++
Date: Mon Oct 22 15:13:36 EDT 2012
User: group
Dark Spectrum Present: No
Reference Spectrum Present: No
Number of Sampled Component Spectra: 1
Spectrometers: USB2E7196
Integration Time (usec): 91000 (USB2E7196)
Spectra Averaged: 30 (USB2E7196)
Boxcar Smoothing: 10 (USB2E7196)
Correct for Electrical Dark: No (USB2E7196)
Strobe/Lamp Enabled: No (USB2E7196)
Correct for Detector Non-linearity: No (USB2E7196)
Correct for Stray Light: No (USB2E7196)
Number of Pixels in Processed Spectrum: 2048
>>>>>Begin Processed Spectral Data<<<<<
339.09	0.00
339.48	224.97
339.86	227.17
340.24	226.87
340.63	228.93
341.01	232.83
341.39	230.90
341.78	232.93
342.16	234.07
342.54	233.97
342.93	222.76
343.31	234.01
343.69	234.53
344.07	234.92
344.46	235.38
344.84	235.75
345.22	235.90
345.60	236.19
345.99	236.39
346.37	236.52
346.75	236.69
347.13	236.75
347.52	236.79
347.90	236.84
348.28	236.87
348.66	236.83
349.05	236.80
349.43	236.87
349.81	236.99
350.19	237.06
350.57	237.04
350.96	237.11
351.34	237.20
351.72	237.33
352.10	237.47
352.48	237.54
352.87	237.62
353.25	237.68
353.63	237.72
354.01	237.74
354.39	237.84
354.77	237.83
355.15	237.97
355.54	238.01
355.92	238.02
356.30	238.06
356.68	238.26
357.06	238.28
357.44	238.37
357.82	238.29
358.20	238.35
358.58	238.42
358.97	238.45
359.35	238.57
359.73	238.61
360.11	238.66
360.49	238.67
360.87	238.70
361.25	238.76
361.63	238.85
362.01	238.91
362.39	238.86
362.77	238.90
363.15	238.89
363.53	238.92
363.91	239.00
364.29	239.04
364.67	238.84
365.05	238.83
365.43	238.78
365.81	238.87
366.19	238.95
366.57	239.04
366.95	239.02
367.33	238.89
367.71	238.83
368.09	238.84
368.47	238.76
368.85	238.71
369.23	238.77
369.61	238.69
369.99	238.74
370.37	238.80
370.75	238.93
371.13	238.87
371.51	238.84
371.89	238.79
372.27	238.75
372.65	238.73
373.03	238.77
373.41	238.69
373.78	238.61
374.16	238.50
374.54	238.34
374.92	238.29
375.30	238.27
375.68	238.21
376.06	238.16
376.44	238.21
376.82	238.19
377.19	238.12
377.57	238.07
377.95	237.97
378.33	237.87
378.71	237.65
379.09	237.67
379.47	237.62
379.84	237.56
380.22	237.50
380.60	237.37
380.98	237.35
381.36	237.33
381.73	237.30
382.11	237.29
382.49	237.28
382.87	237.26
383.25	237.23
383.62	237.45
384.00	237.37
384.38	237.35
384.76	237.39
385.13	237.47
385.51	237.36
385.89	237.27
386.27	237.29
386.64	237.25
387.02	237.14
387.40	237.10
387.78	237.07
388.15	237.08
388.53	237.12
388.91	237.09
389.29	237.08
389.66	237.08
390.04	237.07
390.42	237.08
390.79	237.07
391.17	237.06
391.55	236.79
391.92	236.78
392.30	236.76
392.68	236.70
393.05	236.63
393.43	236.72
393.81	236.71
394.18	236.70
394.56	236.72
394.94	236.74
395.31	236.73
395.69	236.79
396.06	236.83
396.44	236.88
396.82	236.90
397.19	237.00
397.57	236.96
397.95	237.00
398.32	236.99
398.70	237.06
399.07	237.20
399.45	237.27
399.82	237.37
400.20	237.37
400.58	237.48
400.95	237.50
401.33	237.66
401.70	237.96
402.08	238.04
402.45	238.20
402.83	238.41
403.20	238.59
403.58	238.71
403.95	238.92
404.33	239.15
404.71	239.29
405.08	239.65
405.46	239.93
405.83	240.21
406.21	240.57
406.58	240.91
406.96	241.24
407.33	241.64
407.70	242.06
408.08	242.68
408.45	243.20
408.83	243.72
409.20	244.17
409.58	244.62
409.95	245.19
410.33	245.88
410.70	246.54
411.08	247.25
411.45	248.08
411.82	248.91
412.20	249.90
412.57	251.05
412.95	251.91
413.32	253.06
413.69	254.26
414.07	255.49
414.44	256.84
414.82	258.19
415.19	259.84
415.56	261.51
415.94	263.28
416.31	265.29
416.68	267.29
417.06	269.57
417.43	271.85
417.81	274.39
418.18	277.01
418.55	279.80
418.93	282.83
419.30	285.84
419.67	289.06
420.04	292.41
420.42	295.97
420.79	300.01
421.16	304.12
421.54	308.28
421.91	312.66
422.28	317.23
422.66	322.20
423.03	327.07
423.40	332.10
423.77	337.45
424.15	342.93
424.52	348.73
424.89	355.11
425.26	361.12
425.64	367.07
426.01	373.43
426.38	380.20
426.75	387.00
427.13	394.15
427.50	401.62
427.87	409.50
428.24	417.31
428.61	424.95
428.99	433.18
429.36	442.28
429.73	451.23
430.10	460.28
430.47	469.50
430.85	479.08
431.22	489.22
431.59	500.00
431.96	510.35
432.33	521.89
432.70	533.10
433.08	546.38
433.45	558.83
433.82	571.41
434.19	585.13
434.56	598.61
434.93	611.72
435.30	624.86
435.68	639.31
436.05	653.75
436.42	668.11
436.79	681.31
437.16	695.46
437.53	710.47
437.90	725.35
438.27	740.06
438.64	755.20
439.01	769.30
439.38	782.21
439.75	794.61
440.13	808.42
440.50	821.47
440.87	832.33
441.24	843.50
441.61	855.77
441.98	865.10
442.35	876.16
442.72	886.87
443.09	897.34
443.46	903.89
443.83	908.25
444.20	912.45
444.57	918.02
444.94	921.00
445.31	923.89
445.68	926.18
446.05	927.44
446.42	926.70
446.79	925.51
447.16	923.71
447.53	922.45
447.90	917.45
448.27	912.27
448.64	904.91
449.01	899.51
449.37	889.96
449.74	880.84
450.11	869.41
450.48	857.52
450.85	845.23
451.22	834.67
451.59	825.00
451.96	815.33
452.33	802.84
452.70	791.52
453.07	777.95
453.43	764.37
453.80	751.16
454.17	738.30
454.54	726.25
454.91	713.62
455.28	701.22
455.65	689.60
456.02	677.80
456.38	668.03
456.75	655.98
457.12	645.94
457.49	635.87
457.86	626.53
458.23	618.35
458.59	609.20
458.96	600.12
459.33	591.97
459.70	583.77
460.07	577.17
460.43	569.51
460.80	562.35
461.17	556.06
461.54	549.54
461.91	543.36
462.27	537.16
462.64	531.74
463.01	525.90
463.38	520.16
463.74	514.83
464.11	509.85
464.48	505.49
464.85	500.81
465.21	497.26
465.58	493.29
465.95	488.65
466.32	484.93
466.68	481.07
467.05	477.20
467.42	473.30
467.78	469.29
468.15	465.51
468.52	462.65
468.88	459.21
469.25	456.06
469.62	453.46
469.98	450.59
470.35	447.94
470.72	445.42
471.08	442.76
471.45	440.38
471.82	437.96
472.18	435.36
472.55	433.57
472.92	431.47
473.28	429.69
473.65	427.83
474.02	426.07
474.38	424.55
474.75	423.37
475.11	422.10
475.48	421.12
475.85	420.36
476.21	419.67
476.58	418.93
476.94	418.42
477.31	417.66
477.67	417.05
478.04	416.69
478.41	416.48
478.77	416.52
479.14	416.31
479.50	416.38
479.87	416.74
480.23	417.02
480.60	417.19
480.96	417.41
481.33	418.09
481.69	418.66
482.06	419.25
482.42	419.60
482.79	420.28
483.15	421.25
483.52	422.37
483.88	423.34
484.25	424.56
484.61	425.71
484.98	427.13
485.34	428.77
485.71	430.45
486.07	432.24
486.44	433.87
486.80	435.93
487.17	437.99
487.53	440.21
487.90	442.45
488.26	444.93
488.62	447.49
488.99	449.95
489.35	452.63
489.72	455.55
490.08	458.77
490.44	461.94
490.81	465.22
491.17	468.43
491.54	472.12
491.90	475.73
492.26	479.55
492.63	483.40
492.99	487.36
493.36	491.41
493.72	495.74
494.08	500.00
494.45	504.50
494.81	509.31
495.17	514.17
495.54	519.17
495.90	524.27
496.26	529.46
496.63	534.82
496.99	540.27
497.35	546.00
497.72	551.80
498.08	557.58
498.44	563.39
498.80	569.59
499.17	575.57
499.53	581.71
499.89	587.97
500.26	594.27
500.62	600.52
500.98	607.04
501.34	613.51
501.71	620.40
502.07	627.14
502.43	633.83
502.79	640.47
503.16	647.40
503.52	654.39
503.88	661.43
504.24	668.24
504.60	675.00
504.97	681.79
505.33	688.58
505.69	695.80
506.05	702.83
506.41	709.80
506.78	716.68
507.14	723.57
507.50	730.50
507.86	737.56
508.22	744.46
508.59	751.24
508.95	757.94
509.31	764.58
509.67	771.11
510.03	777.55
510.39	783.97
510.75	790.13
511.12	796.11
511.48	802.00
511.84	808.01
512.20	813.90
512.56	819.70
512.92	825.27
513.28	830.72
513.64	836.08
514.00	841.05
514.37	845.84
514.73	850.59
515.09	854.89
515.45	859.21
515.81	863.43
516.17	867.48
516.53	871.42
516.89	875.27
517.25	878.81
517.61	882.21
517.97	885.49
518.33	888.27
518.69	891.18
519.05	893.89
519.41	896.43
519.77	899.01
520.13	901.19
520.49	903.56
520.85	905.59
521.21	907.39
521.57	909.42
521.93	910.96
522.29	912.45
522.65	913.80
523.01	914.93
523.37	916.04
523.73	917.09
524.09	917.67
524.45	918.07
524.81	918.51
525.17	918.80
525.53	919.00
525.89	919.46
526.25	919.76
526.61	919.85
526.97	919.88
527.33	919.90
527.68	920.20
528.04	919.95
528.40	919.32
528.76	918.99
529.12	918.57
529.48	918.24
529.84	917.60
530.20	917.35
530.56	916.79
530.91	916.34
531.27	915.83
531.63	915.51
531.99	915.18
532.35	914.61
532.71	914.12
533.07	913.66
533.42	913.27
533.78	912.77
534.14	912.35
534.50	911.93
534.86	911.58
535.21	910.66
535.57	910.12
535.93	909.53
536.29	909.12
536.65	908.78
537.00	908.54
537.36	908.51
537.72	908.09
538.08	908.18
538.44	907.90
538.79	907.49
539.15	907.31
539.51	907.24
539.87	907.43
540.22	907.07
540.58	907.17
540.94	906.92
541.29	906.49
541.65	906.20
542.01	906.20
542.37	905.83
542.72	905.82
543.08	905.47
543.44	905.73
543.79	905.32
544.15	905.22
544.51	905.35
544.87	905.21
545.22	905.21
545.58	905.14
545.94	904.86
546.29	904.58
546.65	903.98
547.01	903.62
547.36	903.44
547.72	903.59
548.07	903.34
548.43	903.34
548.79	903.61
549.14	903.73
549.50	904.05
549.86	904.30
550.21	904.43
550.57	905.02
550.92	905.17
551.28	905.73
551.64	905.79
551.99	905.81
552.35	906.03
552.70	906.33
553.06	906.34
553.41	906.88
553.77	907.51
554.13	908.38
554.48	909.03
554.84	909.56
555.19	910.34
555.55	911.36
555.90	912.06
556.26	912.89
556.61	913.67
556.97	914.00
557.32	914.75
557.68	915.62
558.03	916.44
558.39	917.33
558.74	918.43
559.10	919.24
559.45	920.15
559.81	921.35
560.16	922.34
560.52	923.58
560.87	924.93
561.23	926.32
561.58	928.05
561.94	929.47
562.29	930.71
562.64	932.20
563.00	933.40
563.35	934.69
563.71	935.84
564.06	936.94
564.42	938.03
564.77	938.96
565.12	940.03
565.48	941.54
565.83	942.90
566.19	944.36
566.54	946.02
566.89	947.42
567.25	948.64
567.60	950.12
567.96	951.31
568.31	952.28
568.66	953.07
569.02	953.73
569.37	954.26
569.72	954.82
570.08	955.31
570.43	955.73
570.78	956.40
571.14	956.92
571.49	957.36
571.84	958.31
572.20	959.16
572.55	960.07
572.90	960.18
573.26	960.36
573.61	960.26
573.96	959.97
574.31	959.85
574.67	959.59
575.02	959.11
575.37	958.93
575.72	958.68
576.08	958.58
576.43	958.04
576.78	957.94
577.13	958.02
577.49	957.86
577.84	957.91
578.19	957.81
578.54	957.54
578.90	957.59
579.25	956.95
579.60	956.20
579.95	955.05
580.30	954.64
580.66	954.31
581.01	953.90
581.36	953.44
581.71	953.08
582.06	952.86
582.42	952.46
582.77	951.54
583.12	950.86
583.47	950.30
583.82	949.62
584.17	948.49
584.53	947.67
584.88	946.73
585.23	945.61
585.58	944.50
585.93	943.38
586.28	942.07
586.63	940.74
586.98	939.61
587.34	938.71
587.69	936.93
588.04	935.21
588.39	933.46
588.74	931.54
589.09	929.86
589.44	927.96
589.79	926.35
590.14	924.99
590.49	923.17
590.84	921.22
591.19	919.63
591.54	917.91
591.89	915.54
592.25	913.34
592.60	910.89
592.95	908.35
593.30	906.17
593.65	903.97
594.00	902.10
594.35	900.87
594.70	898.75
595.05	896.98
595.40	894.78
595.75	892.42
596.10	890.63
596.45	888.16
596.80	885.75
597.15	883.22
597.50	880.68
597.85	878.71
598.19	876.32
598.54	873.59
598.89	871.27
599.24	869.29
599.59	866.99
599.94	864.91
600.29	862.74
600.64	860.43
600.99	858.04
601.34	855.44
601.69	851.99
602.04	849.33
602.39	846.62
602.74	844.19
603.08	841.82
603.43	839.18
603.78	836.78
604.13	834.50
604.48	832.40
604.83	830.15
605.18	827.71
605.53	825.56
605.87	823.66
606.22	822.06
606.57	820.60
606.92	819.37
607.27	818.32
607.62	817.19
607.96	815.88
608.31	814.50
608.66	813.16
609.01	811.71
609.36	809.88
609.70	807.98
610.05	805.97
610.40	804.04
610.75	802.09
611.10	800.14
611.44	797.57
611.79	795.07
612.14	792.58
612.49	789.67
612.83	786.78
613.18	783.69
613.53	780.00
613.88	775.99
614.22	771.93
614.57	767.44
614.92	763.04
615.27	759.00
615.61	754.87
615.96	750.98
616.31	747.19
616.65	743.72
617.00	740.16
617.35	736.82
617.70	733.40
618.04	729.87
618.39	726.56
618.74	723.63
619.08	720.29
619.43	716.94
619.78	713.72
620.12	710.55
620.47	707.57
620.82	704.64
621.16	701.58
621.51	698.67
621.85	695.92
622.20	693.15
622.55	690.09
622.89	687.45
623.24	684.66
623.59	681.78
623.93	678.80
624.28	675.77
624.62	672.78
624.97	669.79
625.32	666.85
625.66	663.70
626.01	660.89
626.35	658.32
626.70	655.64
627.04	653.35
627.39	650.83
627.73	648.17
628.08	645.53
628.43	642.77
628.77	639.86
629.12	636.98
629.46	634.38
629.81	631.53
630.15	628.62
630.50	625.78
630.84	623.10
631.19	620.38
631.53	617.78
631.88	614.97
632.22	612.28
632.57	610.01
632.91	607.42
633.26	604.52
633.60	601.41
633.95	598.50
634.29	595.24
634.64	592.20
634.98	589.00
635.32	586.12
635.67	583.52
636.01	580.76
636.36	577.95
636.70	575.15
637.05	572.55
637.39	569.99
637.73	567.24
638.08	564.59
638.42	562.06
638.77	559.38
639.11	556.85
639.45	554.22
639.80	551.26
640.14	548.69
640.49	546.15
640.83	543.77
641.17	541.41
641.52	539.17
641.86	536.90
642.20	535.04
642.55	532.84
642.89	530.69
643.23	528.58
643.58	526.68
643.92	524.54
644.26	522.24
644.61	520.04
644.95	517.88
645.29	515.61
645.64	513.43
645.98	511.57
646.32	509.60
646.66	507.31
647.01	505.33
647.35	503.47
647.69	501.40
648.04	499.53
648.38	497.51
648.72	495.43
649.06	493.29
649.41	490.93
649.75	488.80
650.09	486.76
650.43	484.77
650.78	482.55
651.12	480.36
651.46	478.52
651.80	476.47
652.14	474.52
652.49	472.59
652.83	470.40
653.17	468.03
653.51	465.83
653.85	463.91
654.20	461.83
654.54	459.60
654.88	457.66
655.22	455.48
655.56	453.52
655.90	451.54
656.25	449.67
656.59	447.87
656.93	445.92
657.27	443.99
657.61	441.95
657.95	440.17
658.29	438.40
658.64	436.53
658.98	434.59
659.32	432.63
659.66	430.75
660.00	428.97
660.34	427.27
660.68	425.41
661.02	423.52
661.36	421.78
661.70	420.07
662.05	418.29
662.39	416.62
662.73	414.87
663.07	413.24
663.41	411.49
663.75	409.70
664.09	408.16
664.43	406.42
664.77	404.87
665.11	403.20
665.45	401.54
665.79	399.99
666.13	398.43
666.47	396.91
666.81	395.36
667.15	393.77
667.49	392.30
667.83	390.94
668.17	389.57
668.51	388.10
668.85	386.67
669.19	385.31
669.53	383.96
669.87	382.44
670.21	380.99
670.55	379.57
670.89	378.38
671.23	376.98
671.57	375.62
671.91	374.30
672.25	372.99
672.58	371.82
672.92	370.46
673.26	369.19
673.60	367.87
673.94	366.65
674.28	365.46
674.62	364.28
674.96	362.99
675.30	361.76
675.64	360.61
675.97	359.36
676.31	358.14
676.65	356.90
676.99	355.95
677.33	354.73
677.67	353.66
678.01	352.49
678.34	351.43
678.68	350.41
679.02	349.28
679.36	348.17
679.70	347.06
680.04	346.01
680.37	344.87
680.71	343.89
681.05	342.88
681.39	341.82
681.73	340.77
682.06	339.79
682.40	338.91
682.74	337.97
683.08	337.15
683.42	336.16
683.75	335.30
684.09	334.25
684.43	333.40
684.77	332.37
685.10	331.40
685.44	330.38
685.78	329.45
686.12	328.43
686.45	327.48
686.79	326.49
687.13	325.60
687.46	324.93
687.80	324.07
688.14	323.10
688.48	322.35
688.81	321.56
689.15	320.81
689.49	319.97
689.82	319.05
690.16	318.13
690.50	317.38
690.83	316.50
691.17	315.64
691.51	314.84
691.84	314.07
692.18	313.17
692.52	312.33
692.85	311.57
693.19	310.94
693.52	310.22
693.86	309.47
694.20	308.75
694.53	307.91
694.87	307.18
695.21	306.45
695.54	305.68
695.88	304.82
696.21	304.00
696.55	303.23
696.88	302.55
697.22	301.83
697.56	301.13
697.89	300.53
698.23	299.94
698.56	299.27
698.90	298.78
699.23	298.17
699.57	297.67
699.90	297.04
700.24	296.34
700.58	295.74
700.91	295.21
701.25	294.80
701.58	294.26
701.92	293.76
702.25	293.28
702.59	292.77
702.92	292.33
703.26	291.93
703.59	291.48
703.93	291.16
704.26	290.75
704.60	290.23
704.93	289.74
705.26	289.22
705.60	288.73
705.93	288.20
706.27	287.87
706.60	287.42
706.94	287.03
707.27	286.60
707.61	286.15
707.94	285.69
708.27	285.16
708.61	284.64
708.94	284.16
709.28	283.68
709.61	283.13
709.94	282.59
710.28	282.02
710.61	281.53
710.95	280.76
711.28	280.33
711.61	279.79
711.95	279.17
712.28	278.64
712.61	278.17
712.95	277.75
713.28	277.28
713.61	276.73
713.95	276.14
714.28	275.72
714.61	275.20
714.95	274.66
715.28	274.10
715.61	273.65
715.95	273.11
716.28	272.60
716.61	272.20
716.95	271.80
717.28	271.33
717.61	270.88
717.94	270.54
718.28	270.05
718.61	269.76
718.94	269.44
719.27	269.04
719.61	268.74
719.94	268.31
720.27	267.87
720.60	267.52
720.94	267.18
721.27	266.77
721.60	266.48
721.93	266.23
722.27	265.94
722.60	265.68
722.93	265.41
723.26	265.12
723.59	264.82
723.93	264.55
724.26	264.32
724.59	264.01
724.92	263.77
725.25	263.51
725.59	263.22
725.92	263.02
726.25	262.78
726.58	262.49
726.91	262.23
727.24	261.99
727.57	261.67
727.91	261.42
728.24	261.27
728.57	261.03
728.90	260.77
729.23	260.51
729.56	260.42
729.89	260.17
730.22	259.96
730.55	259.78
730.89	259.55
731.22	259.28
731.55	259.07
731.88	258.81
732.21	258.48
732.54	258.20
732.87	258.04
733.20	257.85
733.53	257.68
733.86	257.47
734.19	257.23
734.52	257.11
734.85	257.03
735.18	256.74
735.51	256.68
735.84	256.51
736.17	256.35
736.50	255.95
736.83	256.01
737.16	255.82
737.49	255.59
737.82	255.40
738.15	255.26
738.48	255.06
738.81	254.85
739.14	254.72
739.47	254.53
739.80	254.22
740.13	254.00
740.46	253.78
740.79	253.57
741.12	253.36
741.45	253.12
741.78	252.84
742.11	252.74
742.44	252.51
742.77	252.34
743.10	252.13
743.43	252.01
743.75	251.62
744.08	251.73
744.41	251.54
744.74	251.36
745.07	251.11
745.40	250.98
745.73	250.95
746.06	250.79
746.39	250.70
746.71	250.54
747.04	250.39
747.37	250.24
747.70	250.19
748.03	250.06
748.36	249.95
748.68	249.80
749.01	249.60
749.34	249.42
749.67	249.32
750.00	249.23
750.33	249.32
750.65	249.25
750.98	248.89
751.31	248.79
751.64	248.65
751.97	248.67
752.29	248.55
752.62	248.33
752.95	248.20
753.28	248.08
753.60	248.01
753.93	247.98
754.26	247.83
754.59	247.62
754.91	247.53
755.24	247.42
755.57	247.30
755.90	247.17
756.22	247.02
756.55	246.82
756.88	246.64
757.20	246.31
757.53	246.11
757.86	246.02
758.19	245.91
758.51	245.80
758.84	245.64
759.17	245.52
759.49	245.45
759.82	245.47
760.15	245.31
760.47	245.16
760.80	245.01
761.13	244.97
761.45	244.83
761.78	244.74
762.11	244.65
762.43	244.48
762.76	244.37
763.08	244.30
763.41	244.24
763.74	244.18
764.06	244.08
764.39	244.02
764.71	243.94
765.04	243.81
765.37	243.73
765.69	243.60
766.02	243.55
766.34	243.42
766.67	243.18
767.00	243.18
767.32	243.29
767.65	243.37
767.97	243.25
768.30	243.19
768.62	243.06
768.95	242.95
769.27	242.99
769.60	242.98
769.92	242.89
770.25	242.77
770.57	242.66
770.90	242.60
771.22	242.49
771.55	242.41
771.87	242.34
772.20	242.28
772.52	242.40
772.85	242.56
773.17	242.51
773.50	242.44
773.82	242.32
774.15	242.06
774.47	241.87
774.80	241.76
775.12	241.63
775.45	241.63
775.77	241.59
776.09	241.52
776.42	241.45
776.74	241.42
777.07	241.35
777.39	241.33
777.72	241.23
778.04	241.18
778.36	241.06
778.69	241.07
779.01	240.97
779.33	240.73
779.66	240.43
779.98	240.32
780.31	240.27
780.63	240.36
780.95	240.33
781.28	240.24
781.60	240.24
781.92	240.29
782.25	240.23
782.57	240.22
782.89	240.13
783.22	240.11
783.54	240.08
783.86	240.13
784.19	240.10
784.51	240.18
784.83	240.10
785.16	240.12
785.48	240.09
785.80	240.09
786.12	240.09
786.45	240.09
786.77	240.17
787.09	240.14
787.42	240.04
787.74	240.08
788.06	240.07
788.38	240.00
788.71	239.89
789.03	239.83
789.35	239.85
789.67	239.81
789.99	239.78
790.32	239.73
790.64	239.67
790.96	239.80
791.28	239.68
791.61	239.73
791.93	239.76
792.25	239.69
792.57	239.81
792.89	239.72
793.21	239.68
793.54	239.62
793.86	239.67
794.18	239.64
