SpectraSuite Data File
++++++++++++++++++++++++++++++++++++
Date: Mon Oct 22 15:13:58 EDT 2012
User: group
Dark Spectrum Present: No
Reference Spectrum Present: No
Number of Sampled Component Spectra: 1
Spectrometers: USB2E7196
Integration Time (usec): 91000 (USB2E7196)
Spectra Averaged: 30 (USB2E7196)
Boxcar Smoothing: 10 (USB2E7196)
Correct for Electrical Dark: No (USB2E7196)
Strobe/Lamp Enabled: No (USB2E7196)
Correct for Detector Non-linearity: No (USB2E7196)
Correct for Stray Light: No (USB2E7196)
Number of Pixels in Processed Spectrum: 2048
>>>>>Begin Processed Spectral Data<<<<<
339.09	0.00
339.48	224.47
339.86	226.03
340.24	226.63
340.63	228.23
341.01	232.57
341.39	230.63
341.78	232.60
342.16	233.53
342.54	233.00
342.93	222.43
343.31	233.63
343.69	234.22
344.07	234.65
344.46	235.16
344.84	235.59
345.22	235.75
345.60	236.00
345.99	236.19
346.37	236.40
346.75	236.53
347.13	236.63
347.52	236.71
347.90	236.80
348.28	236.86
348.66	236.99
349.05	236.89
349.43	237.02
349.81	237.09
350.19	237.09
350.57	237.18
350.96	237.22
351.34	237.30
351.72	237.29
352.10	237.40
352.48	237.44
352.87	237.44
353.25	237.52
353.63	237.58
354.01	237.66
354.39	237.70
354.77	237.80
355.15	237.91
355.54	237.94
355.92	237.96
356.30	237.94
356.68	238.10
357.06	238.21
357.44	238.16
357.82	238.19
358.20	238.26
358.58	238.31
358.97	238.36
359.35	238.43
359.73	238.56
360.11	238.64
360.49	238.66
360.87	238.74
361.25	238.85
361.63	239.01
362.01	239.03
362.39	239.03
362.77	239.09
363.15	239.11
363.53	239.09
363.91	239.05
364.29	239.09
364.67	238.89
365.05	238.84
365.43	238.90
365.81	239.00
366.19	239.09
366.57	239.18
366.95	239.18
367.33	239.17
367.71	239.13
368.09	239.16
368.47	239.12
368.85	239.07
369.23	239.03
369.61	238.95
369.99	239.07
370.37	239.03
370.75	239.11
371.13	239.11
371.51	239.04
371.89	239.09
372.27	239.13
372.65	239.09
373.03	239.13
373.41	239.01
373.78	238.94
374.16	238.82
374.54	238.66
374.92	238.58
375.30	238.55
375.68	238.52
376.06	238.42
376.44	238.37
376.82	238.32
377.19	238.26
377.57	238.13
377.95	237.96
378.33	237.94
378.71	237.75
379.09	237.67
379.47	237.65
379.84	237.57
380.22	237.46
380.60	237.36
380.98	237.26
381.36	237.23
381.73	237.09
382.11	237.08
382.49	237.08
382.87	237.02
383.25	236.95
383.62	237.15
384.00	237.07
384.38	237.06
384.76	237.11
385.13	237.12
385.51	237.13
385.89	237.05
386.27	237.02
386.64	237.01
387.02	236.95
387.40	236.92
387.78	236.87
388.15	236.88
388.53	236.86
388.91	236.84
389.29	236.80
389.66	236.84
390.04	236.81
390.42	236.81
390.79	236.87
391.17	236.86
391.55	236.62
391.92	236.62
392.30	236.61
392.68	236.53
393.05	236.52
393.43	236.53
393.81	236.56
394.18	236.59
394.56	236.59
394.94	236.63
395.31	236.65
395.69	236.77
396.06	236.79
396.44	236.85
396.82	236.85
397.19	237.02
397.57	237.00
397.95	237.04
398.32	237.02
398.70	236.98
399.07	237.09
399.45	237.15
399.82	237.28
400.20	237.36
400.58	237.41
400.95	237.48
401.33	237.60
401.70	237.83
402.08	237.87
402.45	238.00
402.83	238.16
403.20	238.30
403.58	238.36
403.95	238.63
404.33	238.75
404.71	239.00
405.08	239.36
405.46	239.64
405.83	239.93
406.21	240.24
406.58	240.57
406.96	240.90
407.33	241.23
407.70	241.61
408.08	242.13
408.45	242.65
408.83	243.15
409.20	243.64
409.58	244.05
409.95	244.71
410.33	245.34
410.70	245.94
411.08	246.76
411.45	247.53
411.82	248.24
412.20	249.26
412.57	250.30
412.95	251.10
413.32	252.24
413.69	253.36
414.07	254.51
414.44	255.90
414.82	257.24
415.19	258.87
415.56	260.45
415.94	262.18
416.31	264.07
416.68	265.98
417.06	268.18
417.43	270.33
417.81	272.72
418.18	275.15
418.55	277.87
418.93	280.66
419.30	283.65
419.67	286.83
420.04	290.01
420.42	293.43
420.79	297.31
421.16	301.18
421.54	305.23
421.91	309.47
422.28	313.91
422.66	318.63
423.03	323.18
423.40	328.14
423.77	333.26
424.15	338.57
424.52	344.15
424.89	350.19
425.26	356.09
425.64	361.67
426.01	367.98
426.38	374.43
426.75	380.96
427.13	387.86
427.50	395.02
427.87	402.54
428.24	410.08
428.61	417.47
428.99	425.49
429.36	434.33
429.73	443.09
430.10	451.68
430.47	460.60
430.85	469.93
431.22	479.69
431.59	490.00
431.96	500.02
432.33	511.22
432.70	522.07
433.08	534.75
433.45	546.82
433.82	558.79
434.19	572.16
434.56	585.28
434.93	597.78
435.30	610.35
435.68	624.34
436.05	638.08
436.42	651.81
436.79	664.43
437.16	678.09
437.53	692.27
437.90	706.66
438.27	720.80
438.64	735.35
439.01	748.87
439.38	761.39
439.75	773.21
440.13	786.50
440.50	799.14
440.87	809.70
441.24	820.50
441.61	832.35
441.98	841.31
442.35	851.75
442.72	861.98
443.09	872.03
443.46	878.25
443.83	882.57
444.20	886.51
444.57	892.10
444.94	894.79
445.31	897.63
445.68	899.84
446.05	901.01
446.42	900.15
446.79	898.97
447.16	897.24
447.53	896.17
447.90	891.23
448.27	886.09
448.64	878.71
449.01	873.51
449.37	864.25
449.74	855.37
450.11	844.49
450.48	833.19
450.85	821.50
451.22	811.46
451.59	802.17
451.96	792.97
452.33	780.74
452.70	769.72
453.07	756.70
453.43	743.65
453.80	730.94
454.17	718.67
454.54	707.08
454.91	694.79
455.28	682.80
455.65	671.59
456.02	660.40
456.38	651.27
456.75	639.67
457.12	630.18
457.49	620.68
457.86	611.59
458.23	603.60
458.59	594.87
458.96	586.02
459.33	578.15
459.70	570.36
460.07	564.00
460.43	556.82
460.80	550.00
461.17	544.09
461.54	537.91
461.91	531.97
462.27	525.93
462.64	520.80
463.01	515.14
463.38	509.68
463.74	504.45
464.11	499.59
464.48	495.34
464.85	490.77
465.21	487.26
465.58	483.57
465.95	479.13
466.32	475.48
466.68	471.94
467.05	468.19
467.42	464.39
467.78	460.54
468.15	456.88
468.52	454.10
468.88	450.53
469.25	447.44
469.62	444.92
469.98	442.28
470.35	439.84
470.72	437.55
471.08	435.11
471.45	432.86
471.82	430.63
472.18	428.21
472.55	426.43
472.92	424.41
473.28	422.71
473.65	420.99
474.02	419.26
474.38	417.83
474.75	416.73
475.11	415.52
475.48	414.58
475.85	413.95
476.21	413.20
476.58	412.61
476.94	412.20
477.31	411.63
477.67	411.05
478.04	410.60
478.41	410.40
478.77	410.40
479.14	410.26
479.50	410.37
479.87	410.78
480.23	411.05
480.60	411.22
480.96	411.43
481.33	412.16
481.69	412.87
482.06	413.43
482.42	413.86
482.79	414.56
483.15	415.50
483.52	416.52
483.88	417.59
484.25	418.76
484.61	419.93
484.98	421.18
485.34	422.70
485.71	424.38
486.07	426.00
486.44	427.56
486.80	429.35
487.17	431.42
487.53	433.47
487.90	435.84
488.26	438.24
488.62	440.83
488.99	443.28
489.35	445.81
489.72	448.55
490.08	451.62
490.44	454.60
490.81	457.82
491.17	460.98
491.54	464.54
491.90	467.95
492.26	471.56
492.63	475.32
492.99	479.22
493.36	483.17
493.72	487.37
494.08	491.57
494.45	496.05
494.81	500.32
495.17	504.96
495.54	509.61
495.90	514.40
496.26	519.18
496.63	524.14
496.99	529.27
497.35	534.59
497.72	540.08
498.08	545.71
498.44	551.20
498.80	557.02
499.17	562.81
499.53	568.72
499.89	574.65
500.26	580.60
500.62	586.66
500.98	592.98
501.34	599.10
501.71	605.57
502.07	611.98
502.43	618.43
502.79	624.96
503.16	631.52
503.52	638.19
503.88	644.89
504.24	651.43
504.60	657.99
504.97	664.62
505.33	671.10
505.69	677.79
506.05	684.49
506.41	690.97
506.78	697.34
507.14	703.97
507.50	710.38
507.86	716.99
508.22	723.40
508.59	729.51
508.95	735.88
509.31	742.13
509.67	748.22
510.03	754.17
510.39	759.91
510.75	765.70
511.12	771.16
511.48	776.44
511.84	781.84
512.20	787.06
512.56	792.27
512.92	797.15
513.28	802.00
513.64	806.77
514.00	811.14
514.37	815.32
514.73	819.29
515.09	823.18
515.45	826.99
515.81	830.54
516.17	833.99
516.53	837.28
516.89	840.50
517.25	843.50
517.61	846.50
517.97	849.27
518.33	851.47
518.69	853.78
519.05	856.16
519.41	858.19
519.77	860.24
520.13	861.84
520.49	863.57
520.85	865.02
521.21	866.30
521.57	867.89
521.93	869.00
522.29	869.98
522.65	870.84
523.01	871.33
523.37	871.73
523.73	872.34
524.09	872.38
524.45	872.09
524.81	872.07
525.17	871.86
525.53	871.47
525.89	871.31
526.25	871.09
526.61	870.30
526.97	869.74
527.33	869.20
527.68	868.83
528.04	868.23
528.40	867.15
528.76	866.18
529.12	865.08
529.48	864.19
529.84	863.15
530.20	862.31
530.56	861.27
530.91	860.51
531.27	859.48
531.63	858.68
531.99	857.93
532.35	856.79
532.71	855.85
533.07	855.04
533.42	854.16
533.78	853.13
534.14	852.45
534.50	851.69
534.86	850.87
535.21	849.66
535.57	848.58
535.93	847.67
536.29	846.93
536.65	846.16
537.00	845.47
537.36	844.93
537.72	844.28
538.08	843.93
538.44	843.25
538.79	842.57
539.15	841.84
539.51	841.51
539.87	841.19
540.22	840.59
540.58	840.21
540.94	839.79
541.29	839.27
541.65	838.74
542.01	838.51
542.37	838.15
542.72	838.05
543.08	837.59
543.44	837.56
543.79	837.06
544.15	836.80
544.51	836.87
544.87	836.55
545.22	836.37
545.58	836.14
545.94	835.94
546.29	835.61
546.65	835.47
547.01	835.01
547.36	834.74
547.72	834.72
548.07	834.60
548.43	834.62
548.79	834.73
549.14	834.91
549.50	835.03
549.86	835.21
550.21	835.53
550.57	836.25
550.92	836.65
551.28	837.16
551.64	837.51
551.99	837.71
552.35	838.17
552.70	838.61
553.06	838.94
553.41	839.33
553.77	840.08
554.13	840.80
554.48	841.66
554.84	842.67
555.19	843.60
555.55	844.84
555.90	845.67
556.26	846.82
556.61	847.66
556.97	848.30
557.32	849.25
557.68	850.25
558.03	851.29
558.39	852.32
558.74	853.74
559.10	854.87
559.45	856.07
559.81	857.60
560.16	858.88
560.52	860.34
560.87	862.23
561.23	863.88
561.58	865.96
561.94	867.64
562.29	869.03
562.64	870.84
563.00	872.06
563.35	873.72
563.71	875.14
564.06	876.77
564.42	878.22
564.77	879.40
565.12	880.65
565.48	882.21
565.83	883.74
566.19	885.38
566.54	887.23
566.89	888.81
567.25	890.26
567.60	891.88
567.96	893.40
568.31	894.68
568.66	895.70
569.02	896.44
569.37	897.31
569.72	898.17
570.08	898.70
570.43	899.54
570.78	900.39
571.14	901.09
571.49	901.73
571.84	902.99
572.20	904.07
572.55	905.18
572.90	905.79
573.26	906.62
573.61	906.83
573.96	906.91
574.31	907.08
574.67	906.91
575.02	906.92
575.37	907.08
575.72	907.02
576.08	907.33
576.43	907.45
576.78	907.55
577.13	907.85
577.49	908.22
577.84	908.57
578.19	908.75
578.54	909.10
578.90	909.41
579.25	909.13
579.60	908.80
579.95	908.11
580.30	907.91
580.66	907.64
581.01	907.55
581.36	907.50
581.71	907.35
582.06	907.48
582.42	907.34
582.77	906.70
583.12	906.30
583.47	905.89
583.82	905.48
584.17	904.75
584.53	904.25
584.88	903.53
585.23	902.70
585.58	901.86
585.93	900.69
586.28	899.64
586.63	898.45
586.98	897.66
587.34	896.94
587.69	895.53
588.04	894.13
588.39	892.69
588.74	890.89
589.09	889.62
589.44	888.08
589.79	886.65
590.14	885.46
590.49	883.75
590.84	882.07
591.19	880.56
591.54	879.12
591.89	877.04
592.25	875.26
592.60	872.99
592.95	870.60
593.30	868.75
593.65	866.90
594.00	865.26
594.35	864.15
594.70	862.26
595.05	860.70
595.40	858.82
595.75	856.86
596.10	855.45
596.45	853.19
596.80	850.97
597.15	848.76
597.50	846.56
597.85	844.82
598.19	842.85
598.54	840.50
598.89	838.36
599.24	836.54
599.59	834.36
599.94	832.56
600.29	830.84
600.64	828.86
600.99	826.62
601.34	824.43
601.69	821.33
602.04	819.00
602.39	816.55
602.74	814.26
603.08	812.05
603.43	809.92
603.78	807.96
604.13	806.16
604.48	804.24
604.83	802.32
605.18	800.44
605.53	798.51
605.87	796.84
606.22	795.63
606.57	794.51
606.92	793.71
607.27	792.92
607.62	791.98
607.96	790.89
608.31	789.87
608.66	788.60
609.01	787.33
609.36	785.86
609.70	784.24
610.05	782.54
610.40	780.89
610.75	778.84
611.10	776.92
611.44	774.45
611.79	772.20
612.14	769.95
612.49	767.13
612.83	764.31
613.18	761.33
613.53	757.83
613.88	754.13
614.22	749.94
614.57	745.85
614.92	741.59
615.27	737.76
615.61	733.82
615.96	730.07
616.31	726.45
616.65	723.03
617.00	719.73
617.35	716.50
617.70	713.12
618.04	709.81
618.39	706.67
618.74	703.97
619.08	700.77
619.43	697.47
619.78	694.48
620.12	691.47
620.47	688.68
620.82	685.85
621.16	682.96
621.51	680.43
621.85	677.70
622.20	675.37
622.55	672.60
622.89	670.10
623.24	667.63
623.59	665.08
623.93	662.35
624.28	659.58
624.62	656.99
624.97	654.27
625.32	651.50
625.66	648.55
626.01	645.74
626.35	643.38
626.70	640.94
627.04	638.72
627.39	636.35
627.73	633.85
628.08	631.27
628.43	628.61
628.77	625.78
629.12	623.02
629.46	620.32
629.81	617.67
630.15	614.82
630.50	612.15
630.84	609.37
631.19	606.74
631.53	604.27
631.88	601.37
632.22	598.80
632.57	596.42
632.91	593.90
633.26	591.14
633.60	588.12
633.95	585.28
634.29	582.28
634.64	579.50
634.98	576.47
635.32	573.77
635.67	571.35
636.01	568.93
636.36	566.36
636.70	563.84
637.05	561.21
637.39	558.66
637.73	556.11
638.08	553.67
638.42	551.14
638.77	548.63
639.11	546.33
639.45	543.91
639.80	541.34
640.14	538.91
640.49	536.60
640.83	534.40
641.17	532.27
641.52	529.99
641.86	527.85
642.20	526.03
642.55	523.92
642.89	521.71
643.23	519.65
643.58	517.85
643.92	515.75
644.26	513.73
644.61	511.83
644.95	509.76
645.29	507.67
645.64	505.61
645.98	503.66
646.32	501.73
646.66	499.57
647.01	497.70
647.35	495.87
647.69	493.85
648.04	491.95
648.38	489.83
648.72	487.91
649.06	485.81
649.41	483.56
649.75	481.56
650.09	479.74
650.43	477.66
650.78	475.40
651.12	473.28
651.46	471.38
651.80	469.44
652.14	467.56
652.49	465.68
652.83	463.71
653.17	461.44
653.51	459.22
653.85	457.40
654.20	455.26
654.54	453.24
654.88	451.35
655.22	449.36
655.56	447.58
655.90	445.68
656.25	443.90
656.59	442.22
656.93	440.30
657.27	438.45
657.61	436.62
657.95	434.96
658.29	433.24
658.64	431.42
658.98	429.59
659.32	427.63
659.66	425.82
660.00	424.08
660.34	422.42
660.68	420.75
661.02	418.77
661.36	417.07
661.70	415.46
662.05	413.84
662.39	412.26
662.73	410.63
663.07	409.02
663.41	407.36
663.75	405.77
664.09	404.22
664.43	402.55
664.77	400.93
665.11	399.30
665.45	397.71
665.79	396.15
666.13	394.52
666.47	393.03
666.81	391.51
667.15	389.94
667.49	388.53
667.83	387.13
668.17	385.86
668.51	384.44
668.85	382.99
669.19	381.62
669.53	380.12
669.87	378.63
670.21	377.20
670.55	375.86
670.89	374.56
671.23	373.20
671.57	371.89
671.91	370.69
672.25	369.46
672.58	368.31
672.92	367.06
673.26	365.86
673.60	364.72
673.94	363.53
674.28	362.45
674.62	361.25
674.96	360.07
675.30	358.92
675.64	357.80
675.97	356.60
676.31	355.41
676.65	354.33
676.99	353.39
677.33	352.34
677.67	351.22
678.01	350.07
678.34	349.10
678.68	348.10
679.02	347.01
679.36	346.00
679.70	344.87
680.04	343.84
680.37	342.83
680.71	341.71
681.05	340.71
681.39	339.63
681.73	338.63
682.06	337.74
682.40	336.80
682.74	335.88
683.08	334.99
683.42	334.03
683.75	333.14
684.09	332.08
684.43	331.19
684.77	330.23
685.10	329.21
685.44	328.25
685.78	327.29
686.12	326.32
686.45	325.32
686.79	324.42
687.13	323.59
687.46	322.75
687.80	322.03
688.14	321.11
688.48	320.35
688.81	319.55
689.15	318.71
689.49	317.80
689.82	316.96
690.16	316.09
690.50	315.38
690.83	314.51
691.17	313.73
691.51	312.84
691.84	312.07
692.18	311.23
692.52	310.43
692.85	309.64
693.19	309.01
693.52	308.33
693.86	307.53
694.20	306.80
694.53	306.03
694.87	305.14
695.21	304.46
695.54	303.73
695.88	302.84
696.21	302.04
696.55	301.40
696.88	300.70
697.22	300.02
697.56	299.32
697.89	298.69
698.23	298.04
698.56	297.52
698.90	296.99
699.23	296.46
699.57	295.85
699.90	295.31
700.24	294.70
700.58	294.08
700.91	293.67
701.25	293.27
701.58	292.87
701.92	292.42
702.25	291.87
702.59	291.43
702.92	291.08
703.26	290.67
703.59	290.26
703.93	289.93
704.26	289.53
704.60	289.09
704.93	288.63
705.26	288.13
705.60	287.57
705.93	287.04
706.27	286.62
706.60	286.24
706.94	285.80
707.27	285.36
707.61	284.98
707.94	284.46
708.27	283.84
708.61	283.39
708.94	282.96
709.28	282.54
709.61	282.03
709.94	281.48
710.28	280.91
710.61	280.33
710.95	279.63
711.28	279.21
711.61	278.63
711.95	278.17
712.28	277.68
712.61	277.18
712.95	276.76
713.28	276.39
713.61	275.82
713.95	275.27
714.28	274.71
714.61	274.18
714.95	273.72
715.28	273.19
715.61	272.63
715.95	272.19
716.28	271.70
716.61	271.28
716.95	270.88
717.28	270.52
717.61	270.12
717.94	269.78
718.28	269.16
718.61	268.80
718.94	268.33
719.27	267.96
719.61	267.72
719.94	267.34
720.27	266.92
720.60	266.58
720.94	266.24
721.27	266.02
721.60	265.76
721.93	265.43
722.27	265.20
722.60	265.01
722.93	264.67
723.26	264.47
723.59	264.19
723.93	263.97
724.26	263.74
724.59	263.50
724.92	263.29
725.25	263.19
725.59	263.00
725.92	262.90
726.25	262.70
726.58	262.41
726.91	262.18
727.24	261.95
727.57	261.72
727.91	261.48
728.24	261.26
728.57	261.00
728.90	260.83
729.23	260.49
729.56	260.35
729.89	260.20
730.22	259.94
730.55	259.67
730.89	259.43
731.22	259.21
731.55	259.00
731.88	258.80
732.21	258.52
732.54	258.23
732.87	258.00
733.20	257.72
733.53	257.52
733.86	257.31
734.19	257.10
734.52	256.92
734.85	256.87
735.18	256.61
735.51	256.48
735.84	256.29
736.17	256.21
736.50	255.84
736.83	255.83
737.16	255.63
737.49	255.46
737.82	255.28
738.15	255.08
738.48	254.93
738.81	254.70
739.14	254.55
739.47	254.41
739.80	254.22
740.13	254.12
740.46	253.87
740.79	253.70
741.12	253.52
741.45	253.37
741.78	253.07
742.11	252.95
742.44	252.72
742.77	252.57
743.10	252.43
743.43	252.30
743.75	251.90
744.08	251.97
744.41	251.80
744.74	251.60
745.07	251.40
745.40	251.23
745.73	251.18
746.06	251.08
746.39	250.93
746.71	250.70
747.04	250.54
747.37	250.40
747.70	250.27
748.03	250.11
748.36	250.04
748.68	249.90
749.01	249.70
749.34	249.57
749.67	249.43
750.00	249.28
750.33	249.29
750.65	249.24
750.98	248.91
751.31	248.80
751.64	248.71
751.97	248.71
752.29	248.55
752.62	248.34
752.95	248.13
753.28	247.97
753.60	247.84
753.93	247.76
754.26	247.67
754.59	247.44
754.91	247.28
755.24	247.06
755.57	246.93
755.90	246.79
756.22	246.68
756.55	246.57
756.88	246.42
757.20	246.18
757.53	245.95
757.86	245.77
758.19	245.66
758.51	245.54
758.84	245.31
759.17	245.24
759.49	245.10
759.82	245.11
760.15	245.02
760.47	244.97
760.80	244.76
761.13	244.68
761.45	244.63
761.78	244.55
762.11	244.45
762.43	244.40
762.76	244.28
763.08	244.21
763.41	244.09
763.74	244.04
764.06	243.96
764.39	243.95
764.71	243.94
765.04	243.80
765.37	243.71
765.69	243.64
766.02	243.59
766.34	243.49
766.67	243.26
767.00	243.25
767.32	243.26
767.65	243.32
767.97	243.26
768.30	243.15
768.62	243.06
768.95	242.95
769.27	242.85
769.60	242.91
769.92	242.83
770.25	242.76
770.57	242.62
770.90	242.52
771.22	242.36
771.55	242.27
771.87	242.31
772.20	242.26
772.52	242.38
772.85	242.50
773.17	242.46
773.50	242.47
773.82	242.38
774.15	242.24
774.47	242.13
774.80	242.03
775.12	242.01
775.45	241.99
775.77	242.01
776.09	241.96
776.42	241.85
776.74	241.74
777.07	241.62
777.39	241.59
777.72	241.56
778.04	241.56
778.36	241.51
778.69	241.41
779.01	241.38
779.33	241.15
779.66	240.93
779.98	240.86
780.31	240.80
780.63	240.85
780.95	240.81
781.28	240.80
781.60	240.77
781.92	240.73
782.25	240.67
782.57	240.59
782.89	240.57
783.22	240.52
783.54	240.56
783.86	240.59
784.19	240.51
784.51	240.47
784.83	240.43
785.16	240.31
785.48	240.26
785.80	240.21
786.12	240.22
786.45	240.15
786.77	240.17
787.09	240.11
787.42	240.00
787.74	240.04
788.06	239.92
788.38	239.87
788.71	239.83
789.03	239.83
789.35	239.89
789.67	239.77
789.99	239.73
790.32	239.64
790.64	239.60
790.96	239.76
791.28	239.69
791.61	239.62
791.93	239.63
792.25	239.62
792.57	239.80
792.89	239.73
793.21	239.75
793.54	239.66
793.86	239.65
794.18	239.62
