SpectraSuite Data File
++++++++++++++++++++++++++++++++++++
Date: Mon Oct 22 15:13:47 EDT 2012
User: group
Dark Spectrum Present: No
Reference Spectrum Present: No
Number of Sampled Component Spectra: 1
Spectrometers: USB2E7196
Integration Time (usec): 91000 (USB2E7196)
Spectra Averaged: 30 (USB2E7196)
Boxcar Smoothing: 10 (USB2E7196)
Correct for Electrical Dark: No (USB2E7196)
Strobe/Lamp Enabled: No (USB2E7196)
Correct for Detector Non-linearity: No (USB2E7196)
Correct for Stray Light: No (USB2E7196)
Number of Pixels in Processed Spectrum: 2048
>>>>>Begin Processed Spectral Data<<<<<
339.09	0.00
339.48	223.70
339.86	225.73
340.24	227.73
340.63	229.53
341.01	233.13
341.39	231.77
341.78	232.27
342.16	234.20
342.54	234.07
342.93	222.78
343.31	234.08
343.69	234.66
344.07	235.13
344.46	235.64
344.84	235.99
345.22	236.17
345.60	236.42
345.99	236.63
346.37	236.79
346.75	236.97
347.13	237.11
347.52	237.19
347.90	237.24
348.28	237.24
348.66	237.27
349.05	237.22
349.43	237.27
349.81	237.32
350.19	237.35
350.57	237.40
350.96	237.44
351.34	237.45
351.72	237.52
352.10	237.65
352.48	237.61
352.87	237.69
353.25	237.71
353.63	237.75
354.01	237.83
354.39	237.86
354.77	237.89
355.15	237.93
355.54	237.97
355.92	237.95
356.30	238.02
356.68	238.24
357.06	238.32
357.44	238.33
357.82	238.36
358.20	238.39
358.58	238.42
358.97	238.54
359.35	238.66
359.73	238.78
360.11	238.81
360.49	238.89
360.87	238.88
361.25	238.97
361.63	239.13
362.01	239.17
362.39	239.20
362.77	239.19
363.15	239.23
363.53	239.29
363.91	239.34
364.29	239.32
364.67	239.08
365.05	239.08
365.43	239.09
365.81	239.14
366.19	239.26
366.57	239.33
366.95	239.31
367.33	239.23
367.71	239.19
368.09	239.23
368.47	239.21
368.85	239.19
369.23	239.14
369.61	239.00
369.99	239.05
370.37	239.06
370.75	239.20
371.13	239.12
371.51	239.02
371.89	239.01
372.27	239.04
372.65	239.05
373.03	239.05
373.41	238.99
373.78	239.00
374.16	238.82
374.54	238.72
374.92	238.61
375.30	238.60
375.68	238.51
376.06	238.46
376.44	238.34
376.82	238.33
377.19	238.34
377.57	238.36
377.95	238.25
378.33	238.17
378.71	237.97
379.09	237.95
379.47	237.96
379.84	237.90
380.22	237.84
380.60	237.74
380.98	237.60
381.36	237.59
381.73	237.47
382.11	237.42
382.49	237.39
382.87	237.34
383.25	237.28
383.62	237.52
384.00	237.42
384.38	237.47
384.76	237.43
385.13	237.45
385.51	237.36
385.89	237.26
386.27	237.23
386.64	237.25
387.02	237.15
387.40	237.08
387.78	237.05
388.15	236.99
388.53	237.00
388.91	236.98
389.29	236.94
389.66	236.96
390.04	237.00
390.42	237.06
390.79	237.03
391.17	237.04
391.55	236.79
391.92	236.79
392.30	236.82
392.68	236.75
393.05	236.72
393.43	236.67
393.81	236.67
394.18	236.58
394.56	236.54
394.94	236.64
395.31	236.63
395.69	236.70
396.06	236.71
396.44	236.70
396.82	236.74
397.19	236.85
397.57	236.86
397.95	236.88
398.32	236.80
398.70	236.86
399.07	236.93
399.45	237.00
399.82	237.03
400.20	237.05
400.58	237.19
400.95	237.20
401.33	237.39
401.70	237.59
402.08	237.75
402.45	237.87
402.83	238.01
403.20	238.21
403.58	238.34
403.95	238.58
404.33	238.81
404.71	238.99
405.08	239.31
405.46	239.52
405.83	239.78
406.21	240.13
406.58	240.43
406.96	240.73
407.33	241.00
407.70	241.37
408.08	241.89
408.45	242.31
408.83	242.77
409.20	243.20
409.58	243.66
409.95	244.31
410.33	245.01
410.70	245.58
411.08	246.23
411.45	246.96
411.82	247.70
412.20	248.61
412.57	249.76
412.95	250.66
413.32	251.81
413.69	253.00
414.07	254.11
414.44	255.48
414.82	256.85
415.19	258.49
415.56	260.24
415.94	261.93
416.31	263.90
416.68	265.92
417.06	268.15
417.43	270.25
417.81	272.62
418.18	275.13
418.55	277.81
418.93	280.75
419.30	283.73
419.67	286.88
420.04	290.05
420.42	293.49
420.79	297.34
421.16	301.30
421.54	305.36
421.91	309.63
422.28	314.03
422.66	318.80
423.03	323.41
423.40	328.23
423.77	333.43
424.15	338.72
424.52	344.34
424.89	350.45
425.26	356.45
425.64	362.11
426.01	368.24
426.38	374.84
426.75	381.41
427.13	388.30
427.50	395.53
427.87	403.13
428.24	410.62
428.61	418.00
428.99	426.08
429.36	434.87
429.73	443.62
430.10	452.34
430.47	461.28
430.85	470.67
431.22	480.47
431.59	490.88
431.96	500.94
432.33	511.95
432.70	522.70
433.08	535.29
433.45	547.29
433.82	559.33
434.19	572.75
434.56	585.81
434.93	598.33
435.30	611.07
435.68	625.06
436.05	638.98
436.42	652.77
436.79	665.33
437.16	679.08
437.53	693.37
437.90	707.61
438.27	721.73
438.64	736.28
439.01	749.83
439.38	762.10
439.75	774.09
440.13	787.49
440.50	800.12
440.87	810.60
441.24	821.51
441.61	833.44
441.98	842.21
442.35	852.58
442.72	862.96
443.09	872.91
443.46	879.23
443.83	883.55
444.20	887.59
444.57	893.02
444.94	895.66
445.31	898.53
445.68	900.83
446.05	902.00
446.42	901.11
446.79	899.94
447.16	898.40
447.53	897.09
447.90	892.21
448.27	887.11
448.64	880.12
449.01	874.85
449.37	865.59
449.74	856.83
450.11	846.09
450.48	834.64
450.85	822.82
451.22	812.81
451.59	803.33
451.96	794.02
452.33	781.93
452.70	770.98
453.07	757.90
453.43	744.97
453.80	732.27
454.17	719.93
454.54	708.51
454.91	696.18
455.28	684.39
455.65	673.31
456.02	662.19
456.38	652.80
456.75	641.25
457.12	631.81
457.49	622.25
457.86	613.18
458.23	605.26
458.59	596.58
458.96	587.63
459.33	579.93
459.70	572.12
460.07	565.77
460.43	558.45
460.80	551.57
461.17	545.52
461.54	539.35
461.91	533.52
462.27	527.35
462.64	522.24
463.01	516.56
463.38	511.03
463.74	505.69
464.11	500.87
464.48	496.63
464.85	491.83
465.21	488.30
465.58	484.58
465.95	480.17
466.32	476.49
466.68	472.80
467.05	469.00
467.42	465.22
467.78	461.44
468.15	457.95
468.52	455.29
468.88	451.83
469.25	448.72
469.62	446.16
469.98	443.48
470.35	440.93
470.72	438.49
471.08	435.88
471.45	433.67
471.82	431.45
472.18	429.04
472.55	427.45
472.92	425.32
473.28	423.62
473.65	421.91
474.02	420.22
474.38	418.92
474.75	417.77
475.11	416.53
475.48	415.52
475.85	414.67
476.21	413.88
476.58	413.25
476.94	412.70
477.31	412.10
477.67	411.50
478.04	411.12
478.41	410.91
478.77	411.05
479.14	410.96
479.50	411.00
479.87	411.25
480.23	411.46
480.60	411.79
480.96	412.00
481.33	412.65
481.69	413.31
482.06	413.85
482.42	414.31
482.79	415.04
483.15	416.03
483.52	417.22
483.88	418.28
484.25	419.31
484.61	420.55
484.98	421.81
485.34	423.43
485.71	425.14
486.07	426.85
486.44	428.30
486.80	430.14
487.17	432.18
487.53	434.30
487.90	436.58
488.26	438.95
488.62	441.46
488.99	443.80
489.35	446.25
489.72	449.08
490.08	452.02
490.44	454.97
490.81	458.05
491.17	461.11
491.54	464.61
491.90	468.22
492.26	471.83
492.63	475.62
492.99	479.42
493.36	483.25
493.72	487.45
494.08	491.71
494.45	496.07
494.81	500.48
495.17	505.12
495.54	509.86
495.90	514.70
496.26	519.59
496.63	524.61
496.99	529.96
497.35	535.31
497.72	541.01
498.08	546.62
498.44	552.21
498.80	558.10
499.17	563.83
499.53	569.74
499.89	575.80
500.26	581.76
500.62	587.76
500.98	593.99
501.34	600.19
501.71	606.65
502.07	613.13
502.43	619.61
502.79	626.12
503.16	632.62
503.52	639.29
503.88	645.93
504.24	652.60
504.60	658.99
504.97	665.52
505.33	671.82
505.69	678.66
506.05	685.29
506.41	691.88
506.78	698.46
507.14	705.02
507.50	711.56
507.86	718.15
508.22	724.57
508.59	730.82
508.95	737.12
509.31	743.33
509.67	749.41
510.03	755.38
510.39	761.20
510.75	766.95
511.12	772.44
511.48	777.92
511.84	783.43
512.20	788.78
512.56	794.07
512.92	799.23
513.28	803.87
513.64	808.67
514.00	813.02
514.37	817.28
514.73	821.46
515.09	825.26
515.45	829.03
515.81	832.89
516.17	836.43
516.53	839.72
516.89	842.98
517.25	846.04
517.61	849.01
517.97	851.77
518.33	854.15
518.69	856.53
519.05	858.72
519.41	860.64
519.77	862.73
520.13	864.61
520.49	866.14
520.85	867.73
521.21	869.06
521.57	870.52
521.93	871.46
522.29	872.38
522.65	873.09
523.01	873.70
523.37	873.96
523.73	874.49
524.09	874.60
524.45	874.45
524.81	874.40
525.17	874.23
525.53	873.89
525.89	873.62
526.25	873.20
526.61	872.73
526.97	872.27
527.33	871.74
527.68	871.27
528.04	870.69
528.40	869.79
528.76	868.82
529.12	867.78
529.48	866.96
529.84	865.91
530.20	865.19
530.56	864.17
530.91	863.31
531.27	862.38
531.63	861.66
531.99	860.88
532.35	859.77
532.71	858.76
533.07	857.83
533.42	857.09
533.78	856.21
534.14	855.26
534.50	854.17
534.86	853.23
535.21	851.82
535.57	850.75
535.93	849.72
536.29	849.09
536.65	848.56
537.00	847.98
537.36	847.28
537.72	846.50
538.08	846.17
538.44	845.45
538.79	844.74
539.15	844.02
539.51	843.60
539.87	843.53
540.22	843.03
540.58	842.75
540.94	842.33
541.29	841.93
541.65	841.53
542.01	841.60
542.37	841.36
542.72	841.13
543.08	840.64
543.44	840.63
543.79	840.17
544.15	839.84
544.51	839.79
544.87	839.59
545.22	839.60
545.58	839.36
545.94	839.34
546.29	838.97
546.65	838.62
547.01	838.25
547.36	837.87
547.72	837.72
548.07	837.68
548.43	837.65
548.79	837.75
549.14	837.86
549.50	837.99
549.86	838.26
550.21	838.55
550.57	839.18
550.92	839.40
551.28	839.70
551.64	839.91
551.99	840.09
552.35	840.54
552.70	840.92
553.06	841.31
553.41	841.73
553.77	842.52
554.13	843.29
554.48	844.07
554.84	844.83
555.19	845.78
555.55	846.86
555.90	847.67
556.26	848.72
556.61	849.69
556.97	850.20
557.32	850.97
557.68	852.06
558.03	853.18
558.39	854.22
558.74	855.46
559.10	856.67
559.45	857.89
559.81	859.39
560.16	860.59
560.52	861.81
560.87	863.46
561.23	865.18
561.58	867.19
561.94	868.88
562.29	870.32
562.64	871.99
563.00	873.40
563.35	875.04
563.71	876.31
564.06	877.73
564.42	879.00
564.77	880.20
565.12	881.51
565.48	883.13
565.83	885.00
566.19	886.97
566.54	888.76
566.89	890.40
567.25	891.71
567.60	893.47
567.96	895.09
568.31	896.28
568.66	897.19
569.02	898.10
569.37	898.88
569.72	899.86
570.08	900.61
570.43	901.44
570.78	902.35
571.14	903.00
571.49	903.83
571.84	905.18
572.20	906.22
572.55	907.53
572.90	908.02
573.26	908.45
573.61	908.58
573.96	908.55
574.31	908.68
574.67	908.73
575.02	908.52
575.37	908.76
575.72	909.00
576.08	909.20
576.43	909.09
576.78	909.31
577.13	909.63
577.49	909.91
577.84	910.26
578.19	910.28
578.54	910.78
578.90	910.90
579.25	910.63
579.60	910.31
579.95	909.34
580.30	909.20
580.66	909.04
581.01	908.79
581.36	908.76
581.71	908.47
582.06	908.49
582.42	908.29
582.77	907.68
583.12	907.23
583.47	907.06
583.82	906.60
584.17	905.84
584.53	905.05
584.88	904.31
585.23	903.44
585.58	902.45
585.93	901.17
586.28	900.19
586.63	899.15
586.98	898.27
587.34	897.54
587.69	896.00
588.04	894.61
588.39	893.12
588.74	891.34
589.09	889.93
589.44	888.24
589.79	886.95
590.14	885.59
590.49	883.95
590.84	882.26
591.19	880.90
591.54	879.41
591.89	877.35
592.25	875.48
592.60	873.17
592.95	871.10
593.30	869.36
593.65	867.43
594.00	865.72
594.35	864.71
594.70	862.83
595.05	861.36
595.40	859.55
595.75	857.79
596.10	856.30
596.45	854.16
596.80	852.14
597.15	849.81
597.50	847.65
597.85	845.75
598.19	843.57
598.54	841.22
598.89	839.04
599.24	837.44
599.59	835.50
599.94	833.72
600.29	831.90
600.64	829.78
600.99	827.59
601.34	825.34
601.69	822.20
602.04	819.86
602.39	817.31
602.74	815.03
603.08	812.79
603.43	810.49
603.78	808.50
604.13	806.61
604.48	804.71
604.83	802.73
605.18	800.73
605.53	798.92
605.87	797.11
606.22	795.90
606.57	794.69
606.92	793.59
607.27	792.68
607.62	791.82
607.96	790.96
608.31	789.87
608.66	788.57
609.01	787.24
609.36	785.66
609.70	784.16
610.05	782.50
610.40	780.81
610.75	778.92
611.10	777.12
611.44	774.67
611.79	772.36
612.14	770.00
612.49	767.24
612.83	764.43
613.18	761.53
613.53	758.02
613.88	754.14
614.22	750.24
614.57	746.06
614.92	741.75
615.27	737.71
615.61	733.82
615.96	730.16
616.31	726.50
616.65	723.18
617.00	719.73
617.35	716.44
617.70	713.11
618.04	709.86
618.39	706.73
618.74	704.08
619.08	701.15
619.43	697.98
619.78	694.86
620.12	691.80
620.47	689.00
620.82	686.20
621.16	683.51
621.51	680.95
621.85	678.48
622.20	675.86
622.55	673.21
622.89	670.73
623.24	668.22
623.59	665.66
623.93	662.99
624.28	660.41
624.62	657.68
624.97	654.98
625.32	652.12
625.66	649.12
626.01	646.23
626.35	643.65
626.70	641.33
627.04	639.32
627.39	636.90
627.73	634.47
628.08	632.01
628.43	629.26
628.77	626.43
629.12	623.61
629.46	621.25
629.81	618.59
630.15	615.68
630.50	612.91
630.84	610.20
631.19	607.44
631.53	604.77
631.88	602.03
632.22	599.38
632.57	597.12
632.91	594.62
633.26	592.00
633.60	589.07
633.95	586.10
634.29	583.01
634.64	580.23
634.98	577.25
635.32	574.40
635.67	572.09
636.01	569.60
636.36	566.91
636.70	564.24
637.05	561.62
637.39	559.06
637.73	556.54
638.08	554.20
638.42	551.79
638.77	549.42
639.11	546.90
639.45	544.46
639.80	541.77
640.14	539.34
640.49	536.92
640.83	534.66
641.17	532.38
641.52	530.27
641.86	528.12
642.20	526.10
642.55	523.96
642.89	521.73
643.23	519.66
643.58	517.84
643.92	515.65
644.26	513.47
644.61	511.58
644.95	509.43
645.29	507.20
645.64	505.27
645.98	503.25
646.32	501.38
646.66	499.30
647.01	497.34
647.35	495.48
647.69	493.44
648.04	491.57
648.38	489.59
648.72	487.57
649.06	485.50
649.41	483.38
649.75	481.35
650.09	479.44
650.43	477.30
650.78	475.04
651.12	473.02
651.46	471.18
651.80	469.30
652.14	467.62
652.49	465.79
652.83	463.74
653.17	461.52
653.51	459.38
653.85	457.49
654.20	455.51
654.54	453.38
654.88	451.41
655.22	449.41
655.56	447.63
655.90	445.81
656.25	443.99
656.59	442.18
656.93	440.45
657.27	438.52
657.61	436.65
657.95	435.16
658.29	433.50
658.64	431.73
658.98	429.80
659.32	427.80
659.66	425.96
660.00	424.16
660.34	422.40
660.68	420.77
661.02	418.87
661.36	417.21
661.70	415.58
662.05	414.08
662.39	412.46
662.73	410.80
663.07	409.23
663.41	407.61
663.75	406.04
664.09	404.42
664.43	402.77
664.77	401.25
665.11	399.45
665.45	397.77
665.79	396.17
666.13	394.66
666.47	393.26
666.81	391.76
667.15	390.13
667.49	388.83
667.83	387.43
668.17	386.05
668.51	384.60
668.85	383.23
669.19	381.85
669.53	380.47
669.87	379.00
670.21	377.54
670.55	376.13
670.89	374.89
671.23	373.59
671.57	372.31
671.91	370.97
672.25	369.84
672.58	368.69
672.92	367.45
673.26	366.16
673.60	364.83
673.94	363.57
674.28	362.56
674.62	361.35
674.96	360.02
675.30	358.89
675.64	357.71
675.97	356.55
676.31	355.27
676.65	354.12
676.99	353.14
677.33	352.03
677.67	351.10
678.01	349.93
678.34	348.88
678.68	347.92
679.02	346.94
679.36	345.90
679.70	344.81
680.04	343.82
680.37	342.77
680.71	341.76
681.05	340.86
681.39	339.85
681.73	338.81
682.06	337.92
682.40	337.03
682.74	336.15
683.08	335.29
683.42	334.35
683.75	333.47
684.09	332.46
684.43	331.49
684.77	330.43
685.10	329.43
685.44	328.42
685.78	327.39
686.12	326.43
686.45	325.40
686.79	324.48
687.13	323.65
687.46	322.91
687.80	322.13
688.14	321.20
688.48	320.32
688.81	319.53
689.15	318.79
689.49	317.90
689.82	317.03
690.16	316.08
690.50	315.35
690.83	314.52
691.17	313.64
691.51	312.80
691.84	312.03
692.18	311.28
692.52	310.53
692.85	309.82
693.19	309.24
693.52	308.56
693.86	307.89
694.20	307.17
694.53	306.44
694.87	305.67
695.21	304.86
695.54	304.13
695.88	303.33
696.21	302.42
696.55	301.76
696.88	301.09
697.22	300.47
697.56	299.81
697.89	299.19
698.23	298.64
698.56	298.00
698.90	297.42
699.23	296.77
699.57	296.20
699.90	295.66
700.24	295.05
700.58	294.44
700.91	293.85
701.25	293.46
701.58	292.94
701.92	292.45
702.25	292.05
702.59	291.54
702.92	291.17
703.26	290.82
703.59	290.41
703.93	290.14
704.26	289.71
704.60	289.29
704.93	288.80
705.26	288.26
705.60	287.85
705.93	287.35
706.27	286.97
706.60	286.55
706.94	286.10
707.27	285.55
707.61	285.18
707.94	284.75
708.27	284.13
708.61	283.54
708.94	283.03
709.28	282.51
709.61	282.06
709.94	281.50
710.28	280.96
710.61	280.33
710.95	279.58
711.28	279.13
711.61	278.55
711.95	278.08
712.28	277.57
712.61	277.08
712.95	276.67
713.28	276.28
713.61	275.69
713.95	275.14
714.28	274.60
714.61	273.97
714.95	273.48
715.28	272.91
715.61	272.43
715.95	271.94
716.28	271.50
716.61	271.09
716.95	270.63
717.28	270.17
717.61	269.83
717.94	269.47
718.28	268.96
718.61	268.60
718.94	268.26
719.27	267.93
719.61	267.61
719.94	267.28
720.27	266.82
720.60	266.54
720.94	266.23
721.27	266.03
721.60	265.84
721.93	265.52
722.27	265.40
722.60	265.14
722.93	264.86
723.26	264.60
723.59	264.29
723.93	264.08
724.26	263.91
724.59	263.61
724.92	263.31
725.25	263.10
725.59	262.83
725.92	262.50
726.25	262.20
726.58	261.96
726.91	261.65
727.24	261.40
727.57	261.19
727.91	260.92
728.24	260.67
728.57	260.43
728.90	260.24
729.23	259.90
729.56	259.84
729.89	259.72
730.22	259.51
730.55	259.29
730.89	259.03
731.22	258.79
731.55	258.54
731.88	258.35
732.21	258.09
732.54	257.85
732.87	257.66
733.20	257.48
733.53	257.26
733.86	257.10
734.19	256.89
734.52	256.71
734.85	256.60
735.18	256.32
735.51	256.16
735.84	256.00
736.17	255.86
736.50	255.54
736.83	255.54
737.16	255.35
737.49	255.16
737.82	254.99
738.15	254.85
738.48	254.77
738.81	254.63
739.14	254.52
739.47	254.33
739.80	254.15
740.13	254.00
740.46	253.81
740.79	253.58
741.12	253.41
741.45	253.15
741.78	252.83
742.11	252.72
742.44	252.55
742.77	252.38
743.10	252.17
743.43	251.96
743.75	251.54
744.08	251.61
744.41	251.42
744.74	251.26
745.07	251.01
745.40	250.85
745.73	250.73
746.06	250.53
746.39	250.40
746.71	250.28
747.04	250.13
747.37	249.94
747.70	249.83
748.03	249.65
748.36	249.60
748.68	249.53
749.01	249.33
749.34	249.19
749.67	249.06
750.00	248.93
750.33	248.96
750.65	248.79
750.98	248.37
751.31	248.28
751.64	248.18
751.97	248.20
752.29	248.06
752.62	247.80
752.95	247.67
753.28	247.52
753.60	247.27
753.93	247.21
754.26	247.14
754.59	246.92
754.91	246.80
755.24	246.60
755.57	246.48
755.90	246.37
756.22	246.21
756.55	246.06
756.88	245.90
757.20	245.66
757.53	245.54
757.86	245.47
758.19	245.33
758.51	245.24
758.84	245.01
759.17	244.89
759.49	244.83
759.82	244.84
760.15	244.78
760.47	244.76
760.80	244.59
761.13	244.47
761.45	244.44
761.78	244.37
762.11	244.29
762.43	244.18
762.76	244.17
763.08	244.09
763.41	243.97
763.74	243.98
764.06	243.91
764.39	243.84
764.71	243.72
765.04	243.64
765.37	243.48
765.69	243.37
766.02	243.25
766.34	243.19
766.67	243.00
767.00	242.98
767.32	242.99
767.65	243.07
767.97	243.04
768.30	242.95
768.62	242.86
768.95	242.80
769.27	242.77
769.60	242.65
769.92	242.57
770.25	242.50
770.57	242.32
770.90	242.23
771.22	242.16
771.55	242.13
771.87	242.14
772.20	242.09
772.52	242.23
772.85	242.47
773.17	242.42
773.50	242.34
773.82	242.20
774.15	242.06
774.47	241.85
774.80	241.67
775.12	241.64
775.45	241.61
775.77	241.55
776.09	241.46
776.42	241.46
776.74	241.52
777.07	241.40
777.39	241.38
777.72	241.39
778.04	241.34
778.36	241.29
778.69	241.19
779.01	241.17
779.33	240.93
779.66	240.63
779.98	240.57
780.31	240.56
780.63	240.59
780.95	240.57
781.28	240.50
781.60	240.51
781.92	240.47
782.25	240.44
782.57	240.45
782.89	240.45
783.22	240.39
783.54	240.32
783.86	240.31
784.19	240.30
784.51	240.24
784.83	240.22
785.16	240.19
785.48	240.17
785.80	240.20
786.12	240.20
786.45	240.20
786.77	240.17
787.09	240.10
787.42	240.06
787.74	240.16
788.06	240.16
788.38	240.16
788.71	240.13
789.03	240.10
789.35	240.03
789.67	239.96
789.99	239.91
790.32	239.80
790.64	239.83
790.96	239.97
791.28	239.88
791.61	239.86
791.93	239.80
792.25	239.80
792.57	239.92
792.89	239.88
793.21	239.83
793.54	239.82
793.86	239.78
794.18	239.71
