SpectraSuite Data File
++++++++++++++++++++++++++++++++++++
Date: Mon Oct 22 15:14:04 EDT 2012
User: group
Dark Spectrum Present: No
Reference Spectrum Present: No
Number of Sampled Component Spectra: 1
Spectrometers: USB2E7196
Integration Time (usec): 91000 (USB2E7196)
Spectra Averaged: 30 (USB2E7196)
Boxcar Smoothing: 10 (USB2E7196)
Correct for Electrical Dark: No (USB2E7196)
Strobe/Lamp Enabled: No (USB2E7196)
Correct for Detector Non-linearity: No (USB2E7196)
Correct for Stray Light: No (USB2E7196)
Number of Pixels in Processed Spectrum: 2048
>>>>>Begin Processed Spectral Data<<<<<
339.09	0.00
339.48	225.30
339.86	227.07
340.24	227.37
340.63	229.10
341.01	233.77
341.39	231.23
341.78	232.93
342.16	234.37
342.54	235.50
342.93	222.91
343.31	234.12
343.69	234.57
344.07	234.99
344.46	235.45
344.84	235.79
345.22	235.94
345.60	236.21
345.99	236.38
346.37	236.51
346.75	236.58
347.13	236.60
347.52	236.62
347.90	236.75
348.28	236.76
348.66	236.79
349.05	236.75
349.43	236.81
349.81	236.85
350.19	236.87
350.57	236.92
350.96	237.03
351.34	237.18
351.72	237.34
352.10	237.45
352.48	237.48
352.87	237.57
353.25	237.61
353.63	237.64
354.01	237.69
354.39	237.72
354.77	237.81
355.15	237.94
355.54	237.98
355.92	237.98
356.30	238.04
356.68	238.21
357.06	238.27
357.44	238.24
357.82	238.25
358.20	238.34
358.58	238.35
358.97	238.43
359.35	238.54
359.73	238.61
360.11	238.63
360.49	238.66
360.87	238.67
361.25	238.73
361.63	238.85
362.01	238.97
362.39	238.99
362.77	238.98
363.15	238.97
363.53	238.98
363.91	239.01
364.29	239.03
364.67	238.92
365.05	238.94
365.43	239.01
365.81	239.07
366.19	239.12
366.57	239.20
366.95	239.16
367.33	239.08
367.71	239.07
368.09	239.08
368.47	239.17
368.85	239.16
369.23	239.23
369.61	239.15
369.99	239.15
370.37	239.19
370.75	239.29
371.13	239.21
371.51	239.19
371.89	239.19
372.27	239.16
372.65	239.12
373.03	239.07
373.41	239.04
373.78	238.96
374.16	238.84
374.54	238.69
374.92	238.58
375.30	238.47
375.68	238.39
376.06	238.39
376.44	238.29
376.82	238.26
377.19	238.17
377.57	238.15
377.95	238.06
378.33	238.01
378.71	237.84
379.09	237.82
379.47	237.84
379.84	237.75
380.22	237.68
380.60	237.60
380.98	237.48
381.36	237.37
381.73	237.32
382.11	237.32
382.49	237.31
382.87	237.33
383.25	237.31
383.62	237.54
384.00	237.47
384.38	237.39
384.76	237.38
385.13	237.40
385.51	237.29
385.89	237.21
386.27	237.14
386.64	237.12
387.02	237.11
387.40	237.08
387.78	237.09
388.15	237.02
388.53	236.96
388.91	237.00
389.29	236.97
389.66	236.98
390.04	236.94
390.42	236.97
390.79	236.94
391.17	236.93
391.55	236.68
391.92	236.60
392.30	236.64
392.68	236.57
393.05	236.51
393.43	236.55
393.81	236.57
394.18	236.57
394.56	236.60
394.94	236.69
395.31	236.64
395.69	236.69
396.06	236.72
396.44	236.76
396.82	236.76
397.19	236.93
397.57	236.98
397.95	237.01
398.32	237.03
398.70	237.10
399.07	237.18
399.45	237.24
399.82	237.30
400.20	237.40
400.58	237.47
400.95	237.50
401.33	237.60
401.70	237.81
402.08	237.92
402.45	238.01
402.83	238.14
403.20	238.32
403.58	238.45
403.95	238.69
404.33	238.94
404.71	239.10
405.08	239.39
405.46	239.64
405.83	239.94
406.21	240.17
406.58	240.45
406.96	240.74
407.33	241.05
407.70	241.43
408.08	241.90
408.45	242.37
408.83	242.86
409.20	243.34
409.58	243.77
409.95	244.36
410.33	245.01
410.70	245.66
411.08	246.37
411.45	247.14
411.82	247.87
412.20	248.77
412.57	249.92
412.95	250.75
413.32	251.83
413.69	252.91
414.07	254.20
414.44	255.58
414.82	256.99
415.19	258.57
415.56	260.26
415.94	261.91
416.31	263.89
416.68	265.85
417.06	268.08
417.43	270.20
417.81	272.65
418.18	275.14
418.55	277.79
418.93	280.69
419.30	283.70
419.67	286.80
420.04	290.06
420.42	293.43
420.79	297.33
421.16	301.28
421.54	305.38
421.91	309.57
422.28	314.02
422.66	318.74
423.03	323.35
423.40	328.21
423.77	333.44
424.15	338.76
424.52	344.27
424.89	350.33
425.26	356.31
425.64	362.00
426.01	368.23
426.38	374.68
426.75	381.19
427.13	387.96
427.50	395.21
427.87	402.73
428.24	410.25
428.61	417.57
428.99	425.55
429.36	434.29
429.73	442.95
430.10	451.60
430.47	460.43
430.85	469.78
431.22	479.56
431.59	489.92
431.96	499.93
432.33	510.97
432.70	521.69
433.08	534.34
433.45	546.19
433.82	558.09
434.19	571.47
434.56	584.55
434.93	597.03
435.30	609.61
435.68	623.62
436.05	637.34
436.42	651.17
436.79	663.87
437.16	677.55
437.53	691.79
437.90	706.14
438.27	720.44
438.64	734.88
439.01	748.49
439.38	760.83
439.75	772.69
440.13	786.11
440.50	798.71
440.87	809.17
441.24	820.05
441.61	831.97
441.98	840.82
442.35	851.30
442.72	861.82
443.09	871.79
443.46	877.88
443.83	882.25
444.20	886.08
444.57	891.42
444.94	894.21
445.31	897.02
445.68	899.22
446.05	900.41
446.42	899.59
446.79	898.26
447.16	896.61
447.53	895.46
447.90	890.53
448.27	885.50
448.64	878.24
449.01	873.05
449.37	863.87
449.74	855.12
450.11	844.13
450.48	832.54
450.85	820.83
451.22	810.91
451.59	801.48
451.96	792.34
452.33	780.19
452.70	769.19
453.07	756.30
453.43	743.32
453.80	730.50
454.17	718.36
454.54	706.91
454.91	694.72
455.28	682.72
455.65	671.64
456.02	660.51
456.38	651.31
456.75	639.66
457.12	630.04
457.49	620.45
457.86	611.47
458.23	603.69
458.59	595.10
458.96	586.36
459.33	578.70
459.70	570.90
460.07	564.70
460.43	557.46
460.80	550.54
461.17	544.50
461.54	538.44
461.91	532.46
462.27	526.38
462.64	521.24
463.01	515.65
463.38	510.22
463.74	504.92
464.11	500.07
464.48	495.88
464.85	491.42
465.21	487.95
465.58	484.25
465.95	479.80
466.32	476.15
466.68	472.35
467.05	468.59
467.42	464.83
467.78	461.03
468.15	457.36
468.52	454.73
468.88	451.37
469.25	448.22
469.62	445.78
469.98	443.15
470.35	440.61
470.72	438.16
471.08	435.59
471.45	433.46
471.82	431.13
472.18	428.68
472.55	427.00
472.92	424.96
473.28	423.19
473.65	421.42
474.02	419.61
474.38	418.24
474.75	417.09
475.11	415.89
475.48	414.88
475.85	414.17
476.21	413.32
476.58	412.61
476.94	412.13
477.31	411.49
477.67	410.95
478.04	410.57
478.41	410.42
478.77	410.46
479.14	410.30
479.50	410.60
479.87	411.02
480.23	411.21
480.60	411.41
480.96	411.68
481.33	412.32
481.69	412.94
482.06	413.53
482.42	413.95
482.79	414.65
483.15	415.60
483.52	416.81
483.88	417.90
484.25	419.07
484.61	420.18
484.98	421.39
485.34	422.90
485.71	424.55
486.07	426.25
486.44	427.84
486.80	429.66
487.17	431.53
487.53	433.57
487.90	435.84
488.26	438.24
488.62	440.76
488.99	443.23
489.35	445.81
489.72	448.67
490.08	451.62
490.44	454.56
490.81	457.68
491.17	460.74
491.54	464.20
491.90	467.54
492.26	471.17
492.63	474.87
492.99	478.60
493.36	482.43
493.72	486.59
494.08	490.78
494.45	495.18
494.81	499.73
495.17	504.30
495.54	509.07
495.90	514.06
496.26	518.88
496.63	523.88
496.99	529.14
497.35	534.39
497.72	539.93
498.08	545.59
498.44	551.15
498.80	556.89
499.17	562.74
499.53	568.67
499.89	574.82
500.26	580.74
500.62	586.88
500.98	593.23
501.34	599.42
501.71	605.93
502.07	612.32
502.43	618.72
502.79	625.14
503.16	631.64
503.52	638.07
503.88	644.77
504.24	651.25
504.60	657.66
504.97	664.24
505.33	670.71
505.69	677.43
506.05	684.15
506.41	690.78
506.78	697.14
507.14	703.62
507.50	710.06
507.86	716.70
508.22	723.20
508.59	729.32
508.95	735.65
509.31	741.79
509.67	747.87
510.03	753.72
510.39	759.53
510.75	765.02
511.12	770.55
511.48	775.89
511.84	781.47
512.20	786.59
512.56	791.84
512.92	797.02
513.28	801.89
513.64	806.41
514.00	810.68
514.37	814.93
514.73	819.18
515.09	823.09
515.45	826.88
515.81	830.41
516.17	834.06
516.53	837.17
516.89	840.39
517.25	843.39
517.61	846.33
517.97	849.04
518.33	851.52
518.69	853.71
519.05	855.88
519.41	857.75
519.77	859.91
520.13	861.47
520.49	862.95
520.85	864.45
521.21	865.81
521.57	867.36
521.93	868.12
522.29	868.94
522.65	869.40
523.01	869.93
523.37	870.26
523.73	870.50
524.09	870.54
524.45	870.36
524.81	870.17
525.17	869.99
525.53	869.69
525.89	869.45
526.25	869.28
526.61	868.78
526.97	868.20
527.33	867.66
527.68	867.38
528.04	866.63
528.40	865.43
528.76	864.75
529.12	863.63
529.48	863.13
529.84	861.98
530.20	861.11
530.56	860.11
530.91	859.36
531.27	858.46
531.63	857.76
531.99	856.97
532.35	856.00
532.71	854.97
533.07	854.17
533.42	853.31
533.78	852.25
534.14	851.37
534.50	850.48
534.86	849.72
535.21	848.44
535.57	847.44
535.93	846.45
536.29	845.44
536.65	844.73
537.00	844.10
537.36	843.73
537.72	843.14
538.08	842.79
538.44	842.08
538.79	841.40
539.15	840.79
539.51	840.30
539.87	840.11
540.22	839.57
540.58	839.30
540.94	838.89
541.29	838.59
541.65	838.12
542.01	837.88
542.37	837.52
542.72	837.28
543.08	836.96
543.44	837.03
543.79	836.65
544.15	836.45
544.51	836.23
544.87	835.96
545.22	835.94
545.58	835.65
545.94	835.44
546.29	835.36
546.65	834.98
547.01	834.74
547.36	834.71
547.72	834.70
548.07	834.40
548.43	834.37
548.79	834.39
549.14	834.51
549.50	835.00
549.86	835.20
550.21	835.41
550.57	835.92
550.92	836.08
551.28	836.51
551.64	836.88
551.99	837.37
552.35	837.94
552.70	838.30
553.06	838.73
553.41	839.15
553.77	839.83
554.13	840.73
554.48	841.35
554.84	842.06
555.19	843.25
555.55	844.46
555.90	845.39
556.26	846.44
556.61	847.41
556.97	847.76
557.32	848.83
557.68	850.00
558.03	851.16
558.39	852.39
558.74	853.63
559.10	854.75
559.45	855.73
559.81	857.10
560.16	858.38
560.52	859.86
560.87	861.51
561.23	862.98
561.58	864.98
561.94	866.81
562.29	868.14
562.64	869.57
563.00	871.07
563.35	872.56
563.71	874.05
564.06	875.64
564.42	877.20
564.77	878.26
565.12	879.53
565.48	881.02
565.83	882.69
566.19	884.69
566.54	886.40
566.89	887.96
567.25	889.28
567.60	891.05
567.96	892.52
568.31	893.93
568.66	895.17
569.02	896.02
569.37	896.90
569.72	897.86
570.08	898.68
570.43	899.34
570.78	900.33
571.14	901.19
571.49	901.95
571.84	903.16
572.20	904.30
572.55	905.48
572.90	906.21
573.26	906.81
573.61	906.96
573.96	907.12
574.31	907.20
574.67	907.36
575.02	907.27
575.37	907.44
575.72	907.58
576.08	907.69
576.43	907.65
576.78	907.67
577.13	908.03
577.49	908.19
577.84	908.57
578.19	908.84
578.54	908.92
578.90	909.14
579.25	908.81
579.60	908.48
579.95	907.82
580.30	907.70
580.66	907.69
581.01	907.53
581.36	907.46
581.71	907.47
582.06	907.67
582.42	907.39
582.77	906.69
583.12	906.37
583.47	906.07
583.82	905.80
584.17	905.26
584.53	904.54
584.88	903.89
585.23	903.08
585.58	902.09
585.93	901.13
586.28	900.15
586.63	899.14
586.98	898.24
587.34	897.48
587.69	896.09
588.04	894.54
588.39	893.05
588.74	891.42
589.09	890.06
589.44	888.19
589.79	887.00
590.14	885.96
590.49	884.43
590.84	882.86
591.19	881.23
591.54	879.78
591.89	877.81
592.25	876.09
592.60	873.94
592.95	871.97
593.30	870.06
593.65	868.18
594.00	866.37
594.35	865.33
594.70	863.39
595.05	861.82
595.40	860.11
595.75	858.20
596.10	856.59
596.45	854.43
596.80	852.42
597.15	850.05
597.50	847.80
597.85	845.91
598.19	843.77
598.54	841.55
598.89	839.31
599.24	837.68
599.59	835.63
599.94	833.73
600.29	831.69
600.64	829.70
600.99	827.60
601.34	825.51
601.69	822.49
602.04	820.17
602.39	817.59
602.74	815.17
603.08	812.86
603.43	810.71
603.78	808.88
604.13	806.95
604.48	804.94
604.83	803.05
605.18	800.93
605.53	799.04
605.87	797.35
606.22	796.14
606.57	794.83
606.92	793.81
607.27	792.91
607.62	792.19
607.96	791.20
608.31	790.01
608.66	788.79
609.01	787.34
609.36	785.91
609.70	784.32
610.05	782.63
610.40	781.13
610.75	779.04
611.10	777.01
611.44	774.65
611.79	772.52
612.14	770.22
612.49	767.55
612.83	764.73
613.18	761.71
613.53	758.08
613.88	754.25
614.22	750.29
614.57	746.17
614.92	741.71
615.27	737.69
615.61	733.77
615.96	729.92
616.31	726.34
616.65	722.83
617.00	719.44
617.35	716.29
617.70	712.98
618.04	709.70
618.39	706.50
618.74	703.64
619.08	700.49
619.43	697.19
619.78	694.05
620.12	691.13
620.47	688.33
620.82	685.68
621.16	682.85
621.51	680.35
621.85	677.75
622.20	675.26
622.55	672.53
622.89	669.87
623.24	667.57
623.59	665.14
623.93	662.53
624.28	659.93
624.62	657.21
624.97	654.46
625.32	651.73
625.66	648.90
626.01	646.13
626.35	643.66
626.70	641.21
627.04	639.02
627.39	636.56
627.73	634.15
628.08	631.54
628.43	628.97
628.77	626.09
629.12	623.29
629.46	620.77
629.81	618.04
630.15	615.38
630.50	612.48
630.84	609.58
631.19	607.02
631.53	604.40
631.88	601.65
632.22	598.97
632.57	596.75
632.91	594.07
633.26	591.49
633.60	588.66
633.95	585.79
634.29	582.80
634.64	580.08
634.98	577.03
635.32	574.31
635.67	571.77
636.01	569.18
636.36	566.67
636.70	564.14
637.05	561.61
637.39	559.14
637.73	556.59
638.08	554.23
638.42	551.68
638.77	549.27
639.11	546.82
639.45	544.42
639.80	541.77
640.14	539.46
640.49	537.01
640.83	534.62
641.17	532.43
641.52	530.29
641.86	528.12
642.20	526.13
642.55	524.06
642.89	522.01
643.23	519.94
643.58	518.10
643.92	515.81
644.26	513.74
644.61	511.69
644.95	509.52
645.29	507.26
645.64	505.15
645.98	503.10
646.32	501.26
646.66	499.11
647.01	497.01
647.35	495.14
647.69	493.16
648.04	491.40
648.38	489.38
648.72	487.39
649.06	485.34
649.41	483.32
649.75	481.26
650.09	479.31
650.43	477.38
650.78	475.07
651.12	473.11
651.46	471.29
651.80	469.34
652.14	467.66
652.49	465.89
652.83	463.85
653.17	461.68
653.51	459.47
653.85	457.53
654.20	455.61
654.54	453.55
654.88	451.60
655.22	449.46
655.56	447.59
655.90	445.71
656.25	443.77
656.59	441.82
656.93	439.96
657.27	438.13
657.61	436.13
657.95	434.51
658.29	432.70
658.64	430.79
658.98	428.89
659.32	426.86
659.66	425.00
660.00	423.19
660.34	421.49
660.68	419.69
661.02	417.87
661.36	416.15
661.70	414.43
662.05	412.80
662.39	411.30
662.73	409.62
663.07	408.00
663.41	406.32
663.75	404.77
664.09	403.28
664.43	401.55
664.77	399.98
665.11	398.30
665.45	396.77
665.79	395.23
666.13	393.72
666.47	392.21
666.81	390.75
667.15	389.25
667.49	387.81
667.83	386.48
668.17	385.16
668.51	383.78
668.85	382.42
669.19	381.07
669.53	379.61
669.87	378.18
670.21	376.76
670.55	375.46
670.89	374.23
671.23	372.86
671.57	371.54
671.91	370.35
672.25	369.14
672.58	367.93
672.92	366.70
673.26	365.48
673.60	364.38
673.94	363.13
674.28	362.05
674.62	360.99
674.96	359.79
675.30	358.63
675.64	357.46
675.97	356.26
676.31	355.08
676.65	353.95
676.99	353.05
677.33	351.90
677.67	350.87
678.01	349.66
678.34	348.68
678.68	347.84
679.02	346.79
679.36	345.81
679.70	344.79
680.04	343.80
680.37	342.76
680.71	341.58
681.05	340.66
681.39	339.67
681.73	338.61
682.06	337.61
682.40	336.74
682.74	335.86
683.08	335.09
683.42	334.14
683.75	333.32
684.09	332.25
684.43	331.49
684.77	330.51
685.10	329.70
685.44	328.76
685.78	327.69
686.12	326.80
686.45	325.85
686.79	324.92
687.13	324.13
687.46	323.40
687.80	322.76
688.14	321.92
688.48	321.15
688.81	320.33
689.15	319.62
689.49	318.76
689.82	317.93
690.16	316.99
690.50	316.17
690.83	315.35
691.17	314.57
691.51	313.73
691.84	313.01
692.18	312.11
692.52	311.24
692.85	310.49
693.19	309.80
693.52	309.07
693.86	308.33
694.20	307.63
694.53	306.87
694.87	306.01
695.21	305.18
695.54	304.38
695.88	303.60
696.21	302.74
696.55	302.01
696.88	301.29
697.22	300.59
697.56	299.99
697.89	299.30
698.23	298.70
698.56	298.05
698.90	297.45
699.23	296.93
699.57	296.40
699.90	295.80
700.24	295.17
700.58	294.56
700.91	294.07
701.25	293.59
701.58	293.15
701.92	292.72
702.25	292.30
702.59	291.84
702.92	291.41
703.26	291.00
703.59	290.56
703.93	290.37
704.26	289.96
704.60	289.50
704.93	289.04
705.26	288.59
705.60	288.19
705.93	287.59
706.27	287.12
706.60	286.68
706.94	286.25
707.27	285.77
707.61	285.40
707.94	284.96
708.27	284.41
708.61	283.87
708.94	283.34
709.28	282.89
709.61	282.41
709.94	281.94
710.28	281.45
710.61	280.89
710.95	280.12
711.28	279.70
711.61	279.17
711.95	278.74
712.28	278.16
712.61	277.56
712.95	277.22
713.28	276.82
713.61	276.34
713.95	275.83
714.28	275.37
714.61	274.82
714.95	274.26
715.28	273.66
715.61	273.15
715.95	272.80
716.28	272.25
716.61	271.85
716.95	271.43
717.28	271.05
717.61	270.68
717.94	270.35
718.28	269.88
718.61	269.50
718.94	269.01
719.27	268.63
719.61	268.38
719.94	268.06
720.27	267.63
720.60	267.30
720.94	266.93
721.27	266.57
721.60	266.31
721.93	266.02
722.27	265.88
722.60	265.59
722.93	265.18
723.26	264.98
723.59	264.64
723.93	264.39
724.26	264.13
724.59	263.84
724.92	263.55
725.25	263.35
725.59	263.13
725.92	262.98
726.25	262.76
726.58	262.47
726.91	262.17
727.24	262.04
727.57	261.78
727.91	261.60
728.24	261.43
728.57	261.18
728.90	261.09
729.23	260.68
729.56	260.62
729.89	260.46
730.22	260.23
730.55	259.96
730.89	259.65
731.22	259.40
731.55	259.22
731.88	258.98
732.21	258.78
732.54	258.50
732.87	258.30
733.20	258.02
733.53	257.82
733.86	257.63
734.19	257.33
734.52	257.14
734.85	257.13
735.18	256.91
735.51	256.75
735.84	256.47
736.17	256.38
736.50	256.03
736.83	256.07
737.16	255.88
737.49	255.75
737.82	255.59
738.15	255.43
738.48	255.19
738.81	254.96
739.14	254.68
739.47	254.45
739.80	254.21
740.13	254.14
740.46	253.92
740.79	253.72
741.12	253.53
741.45	253.31
741.78	252.94
742.11	252.79
742.44	252.63
742.77	252.47
743.10	252.25
743.43	252.08
743.75	251.65
744.08	251.75
744.41	251.58
744.74	251.41
745.07	251.21
745.40	251.12
745.73	251.08
746.06	250.92
746.39	250.83
746.71	250.67
747.04	250.49
747.37	250.29
747.70	250.13
748.03	249.92
748.36	249.82
748.68	249.75
749.01	249.50
749.34	249.37
749.67	249.21
750.00	249.16
750.33	249.13
750.65	249.00
750.98	248.58
751.31	248.45
751.64	248.25
751.97	248.20
752.29	248.07
752.62	247.81
752.95	247.69
753.28	247.51
753.60	247.33
753.93	247.29
754.26	247.23
754.59	247.07
754.91	246.95
755.24	246.82
755.57	246.65
755.90	246.59
756.22	246.41
756.55	246.30
756.88	246.07
757.20	245.88
757.53	245.79
757.86	245.64
758.19	245.57
758.51	245.55
758.84	245.43
759.17	245.30
759.49	245.27
759.82	245.34
760.15	245.28
760.47	245.23
760.80	245.09
761.13	245.00
761.45	244.88
761.78	244.85
762.11	244.80
762.43	244.68
762.76	244.57
763.08	244.49
763.41	244.42
763.74	244.36
764.06	244.26
764.39	244.13
764.71	244.07
765.04	243.95
765.37	243.79
765.69	243.66
766.02	243.56
766.34	243.47
766.67	243.21
767.00	243.15
767.32	243.20
767.65	243.20
767.97	243.11
768.30	243.06
768.62	242.94
768.95	242.85
769.27	242.77
769.60	242.74
769.92	242.67
770.25	242.61
770.57	242.46
770.90	242.39
771.22	242.34
771.55	242.28
771.87	242.24
772.20	242.21
772.52	242.35
772.85	242.57
773.17	242.50
773.50	242.48
773.82	242.45
774.15	242.29
774.47	242.13
774.80	242.10
775.12	242.05
775.45	242.02
775.77	241.93
776.09	241.90
776.42	241.84
776.74	241.87
777.07	241.71
777.39	241.76
777.72	241.68
778.04	241.70
778.36	241.64
778.69	241.61
779.01	241.58
779.33	241.35
779.66	241.05
779.98	240.98
780.31	240.91
780.63	240.96
780.95	240.92
781.28	240.92
781.60	240.85
781.92	240.84
782.25	240.81
782.57	240.76
782.89	240.70
783.22	240.66
783.54	240.55
783.86	240.57
784.19	240.53
784.51	240.61
784.83	240.49
785.16	240.51
785.48	240.47
785.80	240.39
786.12	240.31
786.45	240.31
786.77	240.32
787.09	240.28
787.42	240.13
787.74	240.11
788.06	240.05
788.38	239.98
788.71	239.91
789.03	239.82
789.35	239.81
789.67	239.82
789.99	239.78
790.32	239.76
790.64	239.75
790.96	239.81
791.28	239.61
791.61	239.61
791.93	239.56
792.25	239.50
792.57	239.68
792.89	239.63
793.21	239.59
793.54	239.54
793.86	239.57
794.18	239.55
