SpectraSuite Data File
++++++++++++++++++++++++++++++++++++
Date: Mon Oct 22 15:13:30 EDT 2012
User: group
Dark Spectrum Present: No
Reference Spectrum Present: No
Number of Sampled Component Spectra: 1
Spectrometers: USB2E7196
Integration Time (usec): 91000 (USB2E7196)
Spectra Averaged: 30 (USB2E7196)
Boxcar Smoothing: 10 (USB2E7196)
Correct for Electrical Dark: No (USB2E7196)
Strobe/Lamp Enabled: No (USB2E7196)
Correct for Detector Non-linearity: No (USB2E7196)
Correct for Stray Light: No (USB2E7196)
Number of Pixels in Processed Spectrum: 2048
>>>>>Begin Processed Spectral Data<<<<<
339.09	0.00
339.48	224.77
339.86	225.00
340.24	226.20
340.63	227.70
341.01	233.60
341.39	231.27
341.78	232.03
342.16	233.63
342.54	233.57
342.93	222.02
343.31	233.25
343.69	233.75
344.07	234.27
344.46	234.77
344.84	235.16
345.22	235.30
345.60	235.58
345.99	235.77
346.37	235.93
346.75	236.06
347.13	236.16
347.52	236.22
347.90	236.37
348.28	236.45
348.66	236.56
349.05	236.53
349.43	236.63
349.81	236.70
350.19	236.75
350.57	236.82
350.96	236.90
351.34	237.02
351.72	237.09
352.10	237.17
352.48	237.20
352.87	237.31
353.25	237.41
353.63	237.50
354.01	237.59
354.39	237.71
354.77	237.81
355.15	237.96
355.54	238.03
355.92	238.02
356.30	238.13
356.68	238.31
357.06	238.41
357.44	238.41
357.82	238.51
358.20	238.60
358.58	238.67
358.97	238.73
359.35	238.77
359.73	238.92
360.11	238.94
360.49	239.03
360.87	239.08
361.25	239.10
361.63	239.18
362.01	239.24
362.39	239.26
362.77	239.29
363.15	239.24
363.53	239.21
363.91	239.26
364.29	239.28
364.67	239.07
365.05	239.13
365.43	239.17
365.81	239.17
366.19	239.24
366.57	239.37
366.95	239.39
367.33	239.34
367.71	239.23
368.09	239.25
368.47	239.25
368.85	239.22
369.23	239.28
369.61	239.17
369.99	239.23
370.37	239.20
370.75	239.30
371.13	239.22
371.51	239.20
371.89	239.22
372.27	239.16
372.65	239.20
373.03	239.16
373.41	239.11
373.78	239.08
374.16	238.94
374.54	238.76
374.92	238.67
375.30	238.66
375.68	238.66
376.06	238.65
376.44	238.59
376.82	238.55
377.19	238.50
377.57	238.44
377.95	238.29
378.33	238.23
378.71	238.00
379.09	238.02
379.47	238.02
379.84	237.95
380.22	237.88
380.60	237.75
380.98	237.64
381.36	237.56
381.73	237.47
382.11	237.52
382.49	237.53
382.87	237.47
383.25	237.40
383.62	237.60
384.00	237.52
384.38	237.45
384.76	237.45
385.13	237.44
385.51	237.42
385.89	237.35
386.27	237.27
386.64	237.30
387.02	237.27
387.40	237.22
387.78	237.15
388.15	237.17
388.53	237.17
388.91	237.16
389.29	237.17
389.66	237.20
390.04	237.09
390.42	237.13
390.79	237.14
391.17	237.13
391.55	236.88
391.92	236.94
392.30	236.96
392.68	236.90
393.05	236.85
393.43	236.84
393.81	236.86
394.18	236.83
394.56	236.80
394.94	236.83
395.31	236.76
395.69	236.84
396.06	236.81
396.44	236.84
396.82	236.83
397.19	236.99
397.57	236.96
397.95	237.05
398.32	237.02
398.70	237.07
399.07	237.18
399.45	237.20
399.82	237.21
400.20	237.27
400.58	237.37
400.95	237.44
401.33	237.60
401.70	237.87
402.08	238.05
402.45	238.26
402.83	238.45
403.20	238.63
403.58	238.77
403.95	239.05
404.33	239.30
404.71	239.57
405.08	239.90
405.46	240.21
405.83	240.52
406.21	240.82
406.58	241.16
406.96	241.58
407.33	242.03
407.70	242.48
408.08	243.10
408.45	243.63
408.83	244.21
409.20	244.71
409.58	245.18
409.95	245.81
410.33	246.47
410.70	247.21
411.08	248.06
411.45	248.89
411.82	249.75
412.20	250.78
412.57	252.00
412.95	252.99
413.32	254.25
413.69	255.56
414.07	256.94
414.44	258.44
414.82	259.93
415.19	261.69
415.56	263.50
415.94	265.40
416.31	267.52
416.68	269.68
417.06	272.15
417.43	274.61
417.81	277.37
418.18	280.21
418.55	283.24
418.93	286.45
419.30	289.86
419.67	293.36
420.04	296.97
420.42	300.80
420.79	305.17
421.16	309.60
421.54	314.16
421.91	318.90
422.28	323.94
422.66	329.19
423.03	334.42
423.40	339.96
423.77	345.83
424.15	351.90
424.52	358.21
424.89	365.06
425.26	371.66
425.64	377.96
426.01	384.94
426.38	392.20
426.75	399.60
427.13	407.24
427.50	415.50
427.87	424.01
428.24	432.50
428.61	440.77
428.99	449.70
429.36	459.58
429.73	469.40
430.10	479.16
430.47	489.24
430.85	499.72
431.22	510.75
431.59	522.32
431.96	533.59
432.33	545.98
432.70	558.20
433.08	572.46
433.45	586.09
433.82	599.63
434.19	614.67
434.56	629.38
434.93	643.58
435.30	657.69
435.68	673.50
436.05	688.90
436.42	704.54
436.79	718.87
437.16	734.42
437.53	750.58
437.90	766.77
438.27	782.87
438.64	799.33
439.01	814.67
439.38	828.68
439.75	842.13
440.13	857.35
440.50	871.55
440.87	883.50
441.24	895.57
441.61	908.88
441.98	918.90
442.35	930.82
442.72	942.54
443.09	953.83
443.46	960.87
443.83	965.86
444.20	970.13
444.57	976.28
444.94	979.18
445.31	982.09
445.68	984.65
446.05	985.92
446.42	984.90
446.79	983.45
447.16	981.51
447.53	980.02
447.90	974.38
448.27	968.69
448.64	960.55
449.01	954.88
449.37	944.59
449.74	934.65
450.11	922.22
450.48	909.18
450.85	895.78
451.22	884.33
451.59	873.83
451.96	863.57
452.33	849.82
452.70	837.55
453.07	822.84
453.43	808.02
453.80	793.57
454.17	779.60
454.54	766.55
454.91	752.75
455.28	739.20
455.65	726.65
456.02	713.87
456.38	703.46
456.75	690.22
457.12	679.29
457.49	668.42
457.86	658.21
458.23	649.32
458.59	639.62
458.96	629.68
459.33	620.81
459.70	611.85
460.07	604.67
460.43	596.37
460.80	588.81
461.17	581.98
461.54	575.06
461.91	568.39
462.27	561.51
462.64	555.70
463.01	549.43
463.38	543.15
463.74	537.20
464.11	531.63
464.48	526.74
464.85	521.59
465.21	517.66
465.58	513.41
465.95	508.35
466.32	504.23
466.68	500.11
467.05	495.93
467.42	491.78
467.78	487.52
468.15	483.43
468.52	480.36
468.88	476.56
469.25	473.02
469.62	470.33
469.98	467.40
470.35	464.60
470.72	461.90
471.08	459.04
471.45	456.55
471.82	454.04
472.18	451.40
472.55	449.50
472.92	447.32
473.28	445.41
473.65	443.55
474.02	441.52
474.38	439.84
474.75	438.45
475.11	437.00
475.48	435.96
475.85	435.10
476.21	434.25
476.58	433.47
476.94	432.93
477.31	432.20
477.67	431.63
478.04	431.14
478.41	430.95
478.77	431.01
479.14	430.83
479.50	430.78
479.87	431.10
480.23	431.33
480.60	431.41
480.96	431.66
481.33	432.32
481.69	433.05
482.06	433.64
482.42	434.09
482.79	434.84
483.15	435.92
483.52	437.18
483.88	438.34
484.25	439.57
484.61	440.96
484.98	442.36
485.34	444.01
485.71	445.87
486.07	447.78
486.44	449.54
486.80	451.63
487.17	453.86
487.53	456.29
487.90	458.84
488.26	461.51
488.62	464.34
488.99	467.06
489.35	469.82
489.72	472.93
490.08	476.37
490.44	479.75
490.81	483.17
491.17	486.74
491.54	490.57
491.90	494.43
492.26	498.47
492.63	502.64
492.99	506.86
493.36	511.22
493.72	515.90
494.08	520.63
494.45	525.55
494.81	530.72
495.17	535.86
495.54	541.35
495.90	546.88
496.26	552.45
496.63	558.24
496.99	564.36
497.35	570.66
497.72	577.10
498.08	583.57
498.44	589.88
498.80	596.56
499.17	603.23
499.53	610.10
499.89	617.05
500.26	624.01
500.62	631.06
500.98	638.50
501.34	645.74
501.71	653.33
502.07	661.04
502.43	668.57
502.79	676.18
503.16	683.70
503.52	691.58
503.88	699.53
504.24	707.26
504.60	714.88
504.97	722.64
505.33	730.47
505.69	738.54
506.05	746.70
506.41	754.44
506.78	762.48
507.14	770.43
507.50	778.52
507.86	786.58
508.22	794.52
508.59	802.08
508.95	809.92
509.31	817.79
509.67	825.47
510.03	833.05
510.39	840.67
510.75	848.31
511.12	855.65
511.48	862.76
511.84	870.23
512.20	877.52
512.56	884.68
512.92	891.52
513.28	898.33
513.64	905.07
514.00	911.56
514.37	917.72
514.73	923.82
515.09	929.71
515.45	935.65
515.81	941.35
516.17	947.02
516.53	952.39
516.89	957.73
517.25	962.81
517.61	967.89
517.97	972.62
518.33	977.10
518.69	981.64
519.05	986.07
519.41	989.87
519.77	994.00
520.13	997.91
520.49	1001.66
520.85	1005.15
521.21	1008.63
521.57	1012.58
521.93	1015.69
522.29	1018.91
522.65	1021.57
523.01	1024.38
523.37	1027.00
523.73	1029.69
524.09	1031.92
524.45	1033.95
524.81	1036.20
525.17	1038.38
525.53	1040.37
525.89	1042.23
526.25	1043.96
526.61	1045.54
526.97	1047.54
527.33	1049.32
527.68	1051.32
528.04	1052.80
528.40	1053.95
528.76	1055.38
529.12	1056.51
529.48	1057.92
529.84	1058.91
530.20	1060.53
530.56	1061.56
530.91	1063.03
531.27	1064.30
531.63	1065.78
531.99	1067.02
532.35	1067.70
532.71	1068.43
533.07	1069.61
533.42	1070.72
533.78	1071.84
534.14	1072.98
534.50	1073.85
534.86	1074.90
535.21	1075.00
535.57	1075.83
535.93	1076.45
536.29	1077.10
536.65	1077.93
537.00	1078.78
537.36	1079.83
537.72	1080.30
538.08	1081.35
538.44	1081.96
538.79	1082.30
539.15	1082.51
539.51	1083.29
539.87	1084.37
540.22	1085.01
540.58	1085.67
540.94	1086.19
541.29	1086.56
541.65	1086.73
542.01	1087.24
542.37	1087.31
542.72	1088.08
543.08	1088.21
543.44	1089.06
543.79	1089.32
544.15	1089.42
544.51	1089.95
544.87	1090.15
545.22	1090.59
545.58	1090.61
545.94	1090.65
546.29	1090.70
546.65	1090.56
547.01	1090.29
547.36	1090.09
547.72	1090.26
548.07	1090.24
548.43	1090.19
548.79	1090.33
549.14	1090.52
549.50	1090.78
549.86	1091.06
550.21	1091.02
550.57	1091.50
550.92	1091.43
551.28	1091.37
551.64	1091.16
551.99	1090.94
552.35	1090.86
552.70	1090.86
553.06	1090.64
553.41	1090.40
553.77	1090.47
554.13	1090.96
554.48	1091.10
554.84	1091.30
555.19	1091.65
555.55	1092.02
555.90	1092.32
556.26	1092.49
556.61	1092.72
556.97	1092.26
557.32	1092.19
557.68	1092.48
558.03	1092.80
558.39	1093.02
558.74	1093.72
559.10	1094.29
559.45	1094.48
559.81	1095.17
560.16	1095.48
560.52	1096.09
560.87	1097.04
561.23	1097.95
561.58	1099.35
561.94	1100.36
562.29	1100.82
562.64	1101.61
563.00	1102.11
563.35	1102.66
563.71	1103.06
564.06	1103.38
564.42	1103.83
564.77	1103.87
565.12	1104.12
565.48	1104.66
565.83	1105.23
566.19	1105.94
566.54	1106.57
566.89	1107.01
567.25	1107.42
567.60	1107.88
567.96	1108.26
568.31	1108.42
568.66	1108.51
569.02	1108.07
569.37	1107.69
569.72	1107.61
570.08	1106.90
570.43	1106.50
570.78	1106.30
571.14	1105.83
571.49	1105.38
571.84	1105.72
572.20	1105.97
572.55	1105.98
572.90	1105.14
573.26	1104.58
573.61	1103.38
573.96	1102.16
574.31	1101.35
574.67	1099.90
575.02	1098.47
575.37	1097.35
575.72	1096.25
576.08	1095.12
576.43	1093.82
576.78	1092.68
577.13	1091.77
577.49	1090.96
577.84	1090.16
578.19	1089.18
578.54	1088.32
578.90	1087.57
579.25	1085.99
579.60	1084.17
579.95	1082.10
580.30	1080.94
580.66	1079.62
581.01	1078.50
581.36	1077.31
581.71	1075.90
582.06	1074.87
582.42	1073.71
582.77	1072.04
583.12	1070.55
583.47	1069.20
583.82	1067.59
584.17	1065.83
584.53	1064.01
584.88	1062.06
585.23	1059.99
585.58	1057.87
585.93	1055.74
586.28	1053.58
586.63	1051.36
586.98	1049.63
587.34	1048.00
587.69	1045.40
588.04	1042.84
588.39	1040.09
588.74	1037.06
589.09	1034.71
589.44	1032.17
589.79	1029.87
590.14	1027.66
590.49	1024.86
590.84	1021.93
591.19	1019.52
591.54	1016.96
591.89	1013.67
592.25	1010.86
592.60	1007.31
592.95	1004.01
593.30	1001.10
593.65	998.30
594.00	995.57
594.35	993.56
594.70	990.53
595.05	987.97
595.40	985.11
595.75	982.06
596.10	979.80
596.45	976.54
596.80	973.27
597.15	969.87
597.50	966.62
597.85	963.86
598.19	960.96
598.54	957.49
598.89	954.25
599.24	951.75
599.59	948.78
599.94	946.24
600.29	943.56
600.64	940.51
600.99	937.23
601.34	934.11
601.69	929.93
602.04	926.71
602.39	923.19
602.74	920.17
603.08	917.25
603.43	914.01
603.78	911.13
604.13	908.33
604.48	905.54
604.83	902.74
605.18	899.88
605.53	896.93
605.87	894.34
606.22	892.40
606.57	890.33
606.92	888.37
607.27	886.76
607.62	885.05
607.96	883.18
608.31	881.15
608.66	879.00
609.01	876.66
609.36	874.28
609.70	871.88
610.05	869.40
610.40	866.91
610.75	864.23
611.10	861.70
611.44	858.53
611.79	855.49
612.14	852.38
612.49	848.81
612.83	845.37
613.18	841.71
613.53	837.45
613.88	832.95
614.22	828.38
614.57	823.21
614.92	818.14
615.27	813.56
615.61	809.17
615.96	804.73
616.31	800.64
616.65	796.56
617.00	792.60
617.35	788.63
617.70	784.73
618.04	780.79
618.39	776.92
618.74	773.48
619.08	769.66
619.43	765.76
619.78	762.08
620.12	758.39
620.47	755.01
620.82	751.47
621.16	747.96
621.51	744.58
621.85	741.56
622.20	738.36
622.55	734.99
622.89	731.82
623.24	728.83
623.59	725.67
623.93	722.40
624.28	719.01
624.62	715.68
624.97	712.31
625.32	708.86
625.66	705.34
626.01	702.13
626.35	699.21
626.70	696.21
627.04	693.53
627.39	690.52
627.73	687.41
628.08	684.31
628.43	681.08
628.77	677.84
629.12	674.57
629.46	671.76
629.81	668.56
630.15	665.11
630.50	661.91
630.84	658.65
631.19	655.50
631.53	652.50
631.88	649.21
632.22	646.15
632.57	643.30
632.91	640.30
633.26	637.16
633.60	633.69
633.95	630.35
634.29	626.85
634.64	623.67
634.98	620.27
635.32	617.07
635.67	614.19
636.01	611.24
636.36	608.18
636.70	604.98
637.05	601.87
637.39	599.01
637.73	595.90
638.08	593.11
638.42	590.24
638.77	587.43
639.11	584.73
639.45	581.86
639.80	578.96
640.14	576.15
640.49	573.32
640.83	570.79
641.17	568.23
641.52	565.63
641.86	563.15
642.20	560.96
642.55	558.56
642.89	556.06
643.23	553.63
643.58	551.52
643.92	548.96
644.26	546.61
644.61	544.18
644.95	541.69
645.29	539.24
645.64	536.87
645.98	534.55
646.32	532.18
646.66	529.62
647.01	527.31
647.35	525.15
647.69	522.81
648.04	520.57
648.38	518.20
648.72	515.92
649.06	513.47
649.41	510.97
649.75	508.63
650.09	506.47
650.43	504.18
650.78	501.70
651.12	499.43
651.46	497.20
651.80	495.10
652.14	493.17
652.49	491.01
652.83	488.68
653.17	486.22
653.51	483.83
653.85	481.83
654.20	479.65
654.54	477.32
654.88	475.18
655.22	472.93
655.56	470.91
655.90	468.83
656.25	466.75
656.59	464.72
656.93	462.62
657.27	460.49
657.61	458.39
657.95	456.44
658.29	454.44
658.64	452.51
658.98	450.35
659.32	448.14
659.66	446.04
660.00	444.04
660.34	442.06
660.68	440.00
661.02	437.87
661.36	435.85
661.70	433.93
662.05	432.04
662.39	430.20
662.73	428.30
663.07	426.50
663.41	424.64
663.75	422.78
664.09	420.96
664.43	419.05
664.77	417.24
665.11	415.40
665.45	413.55
665.79	411.70
666.13	409.96
666.47	408.30
666.81	406.69
667.15	404.91
667.49	403.35
667.83	401.90
668.17	400.34
668.51	398.80
668.85	397.19
669.19	395.72
669.53	394.14
669.87	392.52
670.21	390.87
670.55	389.31
670.89	387.92
671.23	386.49
671.57	385.11
671.91	383.79
672.25	382.32
672.58	381.01
672.92	379.63
673.26	378.34
673.60	376.98
673.94	375.46
674.28	374.30
674.62	372.98
674.96	371.61
675.30	370.30
675.64	368.93
675.97	367.60
676.31	366.18
676.65	364.89
676.99	363.84
677.33	362.58
677.67	361.50
678.01	360.19
678.34	359.05
678.68	357.85
679.02	356.58
679.36	355.48
679.70	354.35
680.04	353.23
680.37	352.02
680.71	350.68
681.05	349.68
681.39	348.49
681.73	347.46
682.06	346.39
682.40	345.47
682.74	344.53
683.08	343.64
683.42	342.58
683.75	341.63
684.09	340.48
684.43	339.50
684.77	338.46
685.10	337.45
685.44	336.37
685.78	335.38
686.12	334.38
686.45	333.36
686.79	332.35
687.13	331.42
687.46	330.57
687.80	329.86
688.14	328.93
688.48	328.01
688.81	327.00
689.15	326.16
689.49	325.19
689.82	324.27
690.16	323.25
690.50	322.44
690.83	321.54
691.17	320.59
691.51	319.76
691.84	318.90
692.18	318.01
692.52	317.14
692.85	316.32
693.19	315.61
693.52	314.77
693.86	313.97
694.20	313.19
694.53	312.33
694.87	311.44
695.21	310.67
695.54	309.91
695.88	309.10
696.21	308.22
696.55	307.39
696.88	306.57
697.22	305.90
697.56	305.18
697.89	304.46
698.23	303.89
698.56	303.13
698.90	302.39
699.23	301.68
699.57	301.09
699.90	300.40
700.24	299.63
700.58	298.98
700.91	298.43
701.25	297.96
701.58	297.45
701.92	296.93
702.25	296.35
702.59	295.76
702.92	295.24
703.26	294.75
703.59	294.31
703.93	294.00
704.26	293.44
704.60	292.86
704.93	292.33
705.26	291.73
705.60	291.35
705.93	290.78
706.27	290.35
706.60	289.83
706.94	289.43
707.27	288.88
707.61	288.41
707.94	287.89
708.27	287.21
708.61	286.67
708.94	286.12
709.28	285.57
709.61	285.07
709.94	284.54
710.28	283.93
710.61	283.34
710.95	282.52
711.28	282.08
711.61	281.56
711.95	281.06
712.28	280.48
712.61	279.81
712.95	279.42
713.28	278.90
713.61	278.39
713.95	277.80
714.28	277.33
714.61	276.77
714.95	276.23
715.28	275.72
715.61	275.20
715.95	274.71
716.28	274.23
716.61	273.82
716.95	273.34
717.28	272.97
717.61	272.53
717.94	272.13
718.28	271.53
718.61	271.17
718.94	270.76
719.27	270.37
719.61	270.07
719.94	269.64
720.27	269.22
720.60	268.84
720.94	268.42
721.27	268.10
721.60	267.84
721.93	267.47
722.27	267.16
722.60	266.84
722.93	266.53
723.26	266.29
723.59	265.96
723.93	265.68
724.26	265.39
724.59	265.08
724.92	264.87
725.25	264.63
725.59	264.29
725.92	264.06
726.25	263.87
726.58	263.56
726.91	263.30
727.24	263.03
727.57	262.73
727.91	262.54
728.24	262.33
728.57	262.07
728.90	261.92
729.23	261.58
729.56	261.45
729.89	261.20
730.22	260.96
730.55	260.70
730.89	260.52
731.22	260.27
731.55	260.01
731.88	259.75
732.21	259.56
732.54	259.33
732.87	259.05
733.20	258.78
733.53	258.59
733.86	258.42
734.19	258.21
734.52	258.03
734.85	257.95
735.18	257.65
735.51	257.49
735.84	257.26
736.17	257.21
736.50	256.88
736.83	256.97
737.16	256.76
737.49	256.52
737.82	256.33
738.15	256.18
738.48	256.09
738.81	255.90
739.14	255.69
739.47	255.47
739.80	255.28
740.13	255.14
740.46	254.89
740.79	254.62
741.12	254.44
741.45	254.18
741.78	253.83
742.11	253.76
742.44	253.55
742.77	253.37
743.10	253.09
743.43	252.92
743.75	252.46
744.08	252.56
744.41	252.40
744.74	252.15
745.07	251.92
745.40	251.71
745.73	251.67
746.06	251.48
746.39	251.35
746.71	251.20
747.04	250.96
747.37	250.80
747.70	250.67
748.03	250.52
748.36	250.41
748.68	250.34
749.01	250.07
749.34	249.93
749.67	249.77
750.00	249.68
750.33	249.73
750.65	249.63
750.98	249.24
751.31	249.09
751.64	249.01
751.97	249.00
752.29	248.88
752.62	248.66
752.95	248.55
753.28	248.42
753.60	248.28
753.93	248.22
754.26	248.11
754.59	247.93
754.91	247.81
755.24	247.73
755.57	247.50
755.90	247.35
756.22	247.17
756.55	247.04
756.88	246.82
757.20	246.53
757.53	246.37
757.86	246.25
758.19	246.17
758.51	246.05
758.84	245.83
759.17	245.70
759.49	245.57
759.82	245.54
760.15	245.45
760.47	245.38
760.80	245.23
761.13	245.23
761.45	245.18
761.78	245.13
762.11	245.04
762.43	244.94
762.76	244.92
763.08	244.86
763.41	244.82
763.74	244.80
764.06	244.66
764.39	244.55
764.71	244.38
765.04	244.31
765.37	244.22
765.69	244.14
766.02	244.08
766.34	243.99
766.67	243.82
767.00	243.74
767.32	243.74
767.65	243.81
767.97	243.66
768.30	243.61
768.62	243.48
768.95	243.36
769.27	243.28
769.60	243.17
769.92	243.10
770.25	243.01
770.57	242.91
770.90	242.94
771.22	242.85
771.55	242.84
771.87	242.73
772.20	242.66
772.52	242.79
772.85	242.94
773.17	242.90
773.50	242.79
773.82	242.73
774.15	242.54
774.47	242.36
774.80	242.31
775.12	242.18
775.45	242.10
775.77	242.04
776.09	242.05
776.42	242.05
776.74	242.08
777.07	241.95
777.39	241.92
777.72	241.71
778.04	241.70
778.36	241.59
778.69	241.59
779.01	241.53
779.33	241.28
779.66	240.99
779.98	240.91
780.31	240.92
780.63	240.96
780.95	240.98
781.28	240.91
781.60	240.84
781.92	240.82
782.25	240.78
782.57	240.78
782.89	240.68
783.22	240.56
783.54	240.46
783.86	240.42
784.19	240.31
784.51	240.45
784.83	240.42
785.16	240.42
785.48	240.39
785.80	240.33
786.12	240.29
786.45	240.26
786.77	240.23
787.09	240.13
787.42	240.02
787.74	239.93
788.06	239.93
788.38	239.90
788.71	239.88
789.03	239.86
789.35	239.86
789.67	239.83
789.99	239.88
