SpectraSuite Data File
++++++++++++++++++++++++++++++++++++
Date: Mon Oct 22 15:14:21 EDT 2012
User: group
Dark Spectrum Present: No
Reference Spectrum Present: No
Number of Sampled Component Spectra: 1
Spectrometers: USB2E7196
Integration Time (usec): 91000 (USB2E7196)
Spectra Averaged: 30 (USB2E7196)
Boxcar Smoothing: 10 (USB2E7196)
Correct for Electrical Dark: No (USB2E7196)
Strobe/Lamp Enabled: No (USB2E7196)
Correct for Detector Non-linearity: No (USB2E7196)
Correct for Stray Light: No (USB2E7196)
Number of Pixels in Processed Spectrum: 2048
>>>>>Begin Processed Spectral Data<<<<<
339.09	0.00
339.48	224.00
339.86	225.60
340.24	226.93
340.63	228.10
341.01	232.97
341.39	231.00
341.78	232.23
342.16	234.43
342.54	234.73
342.93	222.30
343.31	233.52
343.69	234.08
344.07	234.59
344.46	235.04
344.84	235.43
345.22	235.55
345.60	235.79
345.99	235.95
346.37	236.03
346.75	236.10
347.13	236.24
347.52	236.24
347.90	236.45
348.28	236.46
348.66	236.50
349.05	236.45
349.43	236.51
349.81	236.59
350.19	236.64
350.57	236.74
350.96	236.73
351.34	236.78
351.72	236.87
352.10	236.99
352.48	237.04
352.87	237.07
353.25	237.20
353.63	237.30
354.01	237.41
354.39	237.44
354.77	237.53
355.15	237.58
355.54	237.65
355.92	237.62
356.30	237.65
356.68	237.87
357.06	237.96
357.44	237.99
357.82	238.02
358.20	238.10
358.58	238.14
358.97	238.30
359.35	238.47
359.73	238.60
360.11	238.63
360.49	238.72
360.87	238.80
361.25	238.84
361.63	238.92
362.01	238.99
362.39	239.08
362.77	239.10
363.15	239.14
363.53	239.16
363.91	239.15
364.29	239.24
364.67	239.13
365.05	239.19
365.43	239.25
365.81	239.32
366.19	239.43
366.57	239.47
366.95	239.45
367.33	239.33
367.71	239.28
368.09	239.21
368.47	239.19
368.85	239.26
369.23	239.30
369.61	239.22
369.99	239.24
370.37	239.29
370.75	239.41
371.13	239.35
371.51	239.30
371.89	239.29
372.27	239.25
372.65	239.18
373.03	239.08
373.41	239.00
373.78	238.94
374.16	238.77
374.54	238.65
374.92	238.60
375.30	238.61
375.68	238.49
376.06	238.49
376.44	238.43
376.82	238.28
377.19	238.19
377.57	238.16
377.95	238.02
378.33	237.90
378.71	237.69
379.09	237.66
379.47	237.68
379.84	237.62
380.22	237.61
380.60	237.53
380.98	237.52
381.36	237.49
381.73	237.43
382.11	237.45
382.49	237.44
382.87	237.29
383.25	237.21
383.62	237.45
384.00	237.33
384.38	237.30
384.76	237.31
385.13	237.40
385.51	237.34
385.89	237.30
386.27	237.29
386.64	237.33
387.02	237.25
387.40	237.24
387.78	237.23
388.15	237.13
388.53	237.06
388.91	237.01
389.29	236.97
389.66	236.97
390.04	236.87
390.42	236.90
390.79	236.94
391.17	236.94
391.55	236.66
391.92	236.76
392.30	236.77
392.68	236.72
393.05	236.63
393.43	236.65
393.81	236.68
394.18	236.61
394.56	236.61
394.94	236.62
395.31	236.54
395.69	236.61
396.06	236.69
396.44	236.79
396.82	236.81
397.19	236.98
397.57	236.97
397.95	237.06
398.32	236.98
398.70	237.03
399.07	237.12
399.45	237.21
399.82	237.19
400.20	237.21
400.58	237.32
400.95	237.36
401.33	237.48
401.70	237.67
402.08	237.81
402.45	237.91
402.83	238.11
403.20	238.28
403.58	238.40
403.95	238.61
404.33	238.82
404.71	239.07
405.08	239.39
405.46	239.58
405.83	239.84
406.21	240.17
406.58	240.54
406.96	240.83
407.33	241.18
407.70	241.64
408.08	242.19
408.45	242.65
408.83	243.12
409.20	243.55
409.58	244.01
409.95	244.63
410.33	245.29
410.70	245.84
411.08	246.54
411.45	247.30
411.82	248.06
412.20	248.96
412.57	250.01
412.95	250.77
413.32	251.90
413.69	253.02
414.07	254.22
414.44	255.50
414.82	256.87
415.19	258.48
415.56	260.07
415.94	261.74
416.31	263.66
416.68	265.60
417.06	267.80
417.43	269.87
417.81	272.22
418.18	274.69
418.55	277.47
418.93	280.31
419.30	283.27
419.67	286.38
420.04	289.56
420.42	292.92
420.79	296.84
421.16	300.77
421.54	304.81
421.91	309.04
422.28	313.53
422.66	318.23
423.03	322.81
423.40	327.64
423.77	332.78
424.15	338.09
424.52	343.61
424.89	349.69
425.26	355.61
425.64	361.28
426.01	367.53
426.38	373.95
426.75	380.44
427.13	387.29
427.50	394.45
427.87	401.93
428.24	409.47
428.61	416.80
428.99	424.87
429.36	433.63
429.73	442.35
430.10	450.84
430.47	459.69
430.85	468.89
431.22	478.62
431.59	488.99
431.96	498.96
432.33	510.03
432.70	520.82
433.08	533.42
433.45	545.36
433.82	557.33
434.19	570.52
434.56	583.58
434.93	596.22
435.30	608.82
435.68	622.78
436.05	636.45
436.42	650.18
436.79	662.62
437.16	676.36
437.53	690.55
437.90	705.03
438.27	719.06
438.64	733.60
439.01	747.23
439.38	759.42
439.75	771.36
440.13	784.89
440.50	797.54
440.87	808.03
441.24	818.90
441.61	830.55
441.98	839.52
442.35	849.97
442.72	860.22
443.09	870.13
443.46	876.41
443.83	880.78
444.20	884.63
444.57	890.11
444.94	892.64
445.31	895.40
445.68	897.75
446.05	898.99
446.42	898.26
446.79	896.96
447.16	895.43
447.53	894.20
447.90	889.07
448.27	884.02
448.64	876.97
449.01	871.72
449.37	862.67
449.74	853.97
450.11	843.11
450.48	831.49
450.85	819.92
451.22	809.82
451.59	800.35
451.96	791.37
452.33	779.36
452.70	768.62
453.07	755.73
453.43	742.59
453.80	729.96
454.17	717.72
454.54	706.25
454.91	694.12
455.28	682.13
455.65	671.20
456.02	659.93
456.38	650.57
456.75	638.99
457.12	629.57
457.49	619.95
457.86	610.93
458.23	603.12
458.59	594.36
458.96	585.66
459.33	578.03
459.70	570.01
460.07	563.68
460.43	556.39
460.80	549.54
461.17	543.44
461.54	537.28
461.91	531.33
462.27	525.26
462.64	520.12
463.01	514.55
463.38	509.01
463.74	503.74
464.11	499.00
464.48	494.87
464.85	490.24
465.21	486.77
465.58	483.08
465.95	478.64
466.32	475.08
466.68	471.38
467.05	467.70
467.42	464.15
467.78	460.37
468.15	456.72
468.52	453.97
468.88	450.52
469.25	447.48
469.62	445.01
469.98	442.39
470.35	439.88
470.72	437.49
471.08	434.89
471.45	432.66
471.82	430.38
472.18	427.83
472.55	426.07
472.92	424.04
473.28	422.33
473.65	420.69
474.02	418.88
474.38	417.50
474.75	416.15
475.11	414.87
475.48	413.88
475.85	413.14
476.21	412.29
476.58	411.71
476.94	411.22
477.31	410.60
477.67	409.94
478.04	409.51
478.41	409.30
478.77	409.32
479.14	409.16
479.50	409.24
479.87	409.61
480.23	409.87
480.60	410.08
480.96	410.29
481.33	410.95
481.69	411.61
482.06	412.11
482.42	412.55
482.79	413.27
483.15	414.23
483.52	415.32
483.88	416.39
484.25	417.43
484.61	418.62
484.98	419.87
485.34	421.50
485.71	423.05
486.07	424.73
486.44	426.30
486.80	428.21
487.17	430.14
487.53	432.30
487.90	434.56
488.26	436.85
488.62	439.34
488.99	441.70
489.35	444.18
489.72	446.98
490.08	450.07
490.44	452.93
490.81	455.97
491.17	459.10
491.54	462.54
491.90	466.04
492.26	469.74
492.63	473.49
492.99	477.18
493.36	481.15
493.72	485.27
494.08	489.53
494.45	493.93
494.81	498.43
495.17	502.95
495.54	507.63
495.90	512.67
496.26	517.54
496.63	522.57
496.99	527.89
497.35	533.36
497.72	538.99
498.08	544.60
498.44	550.14
498.80	555.96
499.17	561.78
499.53	567.70
499.89	573.62
500.26	579.57
500.62	585.70
500.98	591.98
501.34	598.10
501.71	604.62
502.07	611.16
502.43	617.59
502.79	623.99
503.16	630.52
503.52	637.03
503.88	643.73
504.24	650.30
504.60	656.74
504.97	663.17
505.33	669.45
505.69	676.26
506.05	682.93
506.41	689.48
506.78	695.98
507.14	702.44
507.50	708.89
507.86	715.31
508.22	721.73
508.59	727.86
508.95	734.24
509.31	740.33
509.67	746.21
510.03	752.14
510.39	758.06
510.75	763.78
511.12	769.33
511.48	774.64
511.84	780.04
512.20	785.27
512.56	790.42
512.92	795.65
513.28	800.42
513.64	805.11
514.00	809.43
514.37	813.70
514.73	817.85
515.09	821.90
515.45	825.72
515.81	829.47
516.17	833.07
516.53	836.27
516.89	839.50
517.25	842.57
517.61	845.50
517.97	848.14
518.33	850.34
518.69	852.65
519.05	854.74
519.41	856.71
519.77	858.84
520.13	860.49
520.49	861.92
520.85	863.28
521.21	864.63
521.57	865.95
521.93	866.83
522.29	867.73
522.65	868.18
523.01	868.85
523.37	869.11
523.73	869.54
524.09	869.58
524.45	869.34
524.81	869.10
525.17	868.94
525.53	868.68
525.89	868.55
526.25	868.12
526.61	867.64
526.97	867.21
527.33	866.67
527.68	866.40
528.04	865.74
528.40	864.85
528.76	863.98
529.12	863.16
529.48	862.34
529.84	861.27
530.20	860.55
530.56	859.47
530.91	858.74
531.27	857.73
531.63	857.09
531.99	856.23
532.35	855.16
532.71	854.00
533.07	853.12
533.42	852.22
533.78	851.30
534.14	850.54
534.50	849.54
534.86	848.74
535.21	847.48
535.57	846.60
535.93	845.55
536.29	844.68
536.65	843.80
537.00	843.04
537.36	842.45
537.72	841.66
538.08	841.15
538.44	840.29
538.79	839.45
539.15	838.66
539.51	838.25
539.87	838.03
540.22	837.46
540.58	837.02
540.94	836.59
541.29	836.08
541.65	835.55
542.01	835.30
542.37	834.83
542.72	834.62
543.08	834.22
543.44	834.29
543.79	833.90
544.15	833.65
544.51	833.74
544.87	833.53
545.22	833.59
545.58	833.57
545.94	833.49
546.29	833.47
546.65	833.25
547.01	832.95
547.36	832.94
547.72	833.13
548.07	833.15
548.43	833.28
548.79	833.49
549.14	833.76
549.50	834.30
549.86	834.52
550.21	834.92
550.57	835.55
550.92	835.84
551.28	836.45
551.64	836.87
551.99	837.22
552.35	837.86
552.70	838.26
553.06	838.59
553.41	839.12
553.77	839.92
554.13	840.89
554.48	841.78
554.84	842.58
555.19	843.77
555.55	844.89
555.90	845.72
556.26	846.80
556.61	847.79
556.97	848.40
557.32	849.44
557.68	850.34
558.03	851.39
558.39	852.61
558.74	853.92
559.10	855.10
559.45	856.20
559.81	857.67
560.16	859.03
560.52	860.67
560.87	862.47
561.23	863.99
561.58	865.88
561.94	867.59
562.29	868.97
562.64	870.51
563.00	872.00
563.35	873.55
563.71	875.06
564.06	876.55
564.42	877.96
564.77	879.20
565.12	880.67
565.48	882.38
565.83	883.93
566.19	885.73
566.54	887.69
566.89	889.21
567.25	890.39
567.60	891.99
567.96	893.37
568.31	894.52
568.66	895.76
569.02	896.67
569.37	897.55
569.72	898.57
570.08	899.20
570.43	900.02
570.78	901.02
571.14	901.63
571.49	902.35
571.84	903.47
572.20	904.46
572.55	905.44
572.90	905.85
573.26	906.47
573.61	906.62
573.96	906.50
574.31	906.76
574.67	906.93
575.02	906.93
575.37	907.09
575.72	907.19
576.08	907.36
576.43	907.30
576.78	907.48
577.13	907.79
577.49	908.11
577.84	908.37
578.19	908.62
578.54	908.89
578.90	909.11
579.25	908.85
579.60	908.56
579.95	907.79
580.30	907.82
580.66	907.56
581.01	907.45
581.36	907.47
581.71	907.23
582.06	907.20
582.42	906.80
582.77	906.11
583.12	905.71
583.47	905.34
583.82	905.03
584.17	904.21
584.53	903.50
584.88	902.85
585.23	901.95
585.58	900.96
585.93	899.85
586.28	898.85
586.63	897.85
586.98	896.94
587.34	896.47
587.69	894.93
588.04	893.60
588.39	891.99
588.74	890.43
589.09	889.27
589.44	887.68
589.79	886.35
590.14	885.25
590.49	883.68
590.84	882.10
591.19	880.75
591.54	879.31
591.89	877.37
592.25	875.49
592.60	873.43
592.95	871.34
593.30	869.50
593.65	867.73
594.00	865.89
594.35	864.88
594.70	862.91
595.05	861.40
595.40	859.55
595.75	857.64
596.10	855.90
596.45	853.68
596.80	851.50
597.15	849.29
597.50	847.05
597.85	845.33
598.19	843.15
598.54	840.64
598.89	838.61
599.24	836.91
599.59	834.89
599.94	832.99
600.29	831.05
600.64	828.93
600.99	826.57
601.34	824.36
601.69	821.19
602.04	818.78
602.39	816.15
602.74	813.88
603.08	811.77
603.43	809.50
603.78	807.53
604.13	805.81
604.48	803.80
604.83	801.85
605.18	799.65
605.53	797.75
605.87	795.86
606.22	794.27
606.57	792.71
606.92	791.32
607.27	790.11
607.62	788.99
607.96	787.94
608.31	786.62
608.66	785.13
609.01	783.60
609.36	781.97
609.70	780.21
610.05	778.36
610.40	776.37
610.75	774.38
611.10	772.28
611.44	769.67
611.79	767.46
612.14	765.01
612.49	762.26
612.83	759.35
613.18	756.50
613.53	753.32
613.88	749.81
614.22	746.20
614.57	742.27
614.92	738.25
615.27	734.53
615.61	730.75
615.96	727.29
616.31	723.87
616.65	720.62
617.00	717.35
617.35	714.29
617.70	711.27
618.04	708.21
618.39	705.26
618.74	702.45
619.08	699.48
619.43	696.45
619.78	693.48
620.12	690.62
620.47	688.00
620.82	685.14
621.16	682.35
621.51	679.69
621.85	677.15
622.20	674.68
622.55	671.83
622.89	669.54
623.24	667.10
623.59	664.59
623.93	661.91
624.28	659.34
624.62	656.59
624.97	653.87
625.32	650.97
625.66	647.97
626.01	645.30
626.35	642.78
626.70	640.21
627.04	637.87
627.39	635.40
627.73	632.80
628.08	630.16
628.43	627.46
628.77	624.67
629.12	622.00
629.46	619.41
629.81	616.86
630.15	613.94
630.50	611.17
630.84	608.42
631.19	605.74
631.53	603.08
631.88	600.37
632.22	597.67
632.57	595.29
632.91	592.91
633.26	590.32
633.60	587.46
633.95	584.71
634.29	581.82
634.64	579.04
634.98	576.22
635.32	573.54
635.67	571.13
636.01	568.53
636.36	565.86
636.70	563.37
637.05	560.85
637.39	558.38
637.73	555.78
638.08	553.32
638.42	550.86
638.77	548.57
639.11	546.17
639.45	543.92
639.80	541.41
640.14	538.92
640.49	536.49
640.83	534.21
641.17	531.93
641.52	529.78
641.86	527.69
642.20	525.65
642.55	523.61
642.89	521.45
643.23	519.53
643.58	517.69
643.92	515.45
644.26	513.23
644.61	511.20
644.95	508.99
645.29	506.92
645.64	504.85
645.98	502.87
646.32	500.97
646.66	498.63
647.01	496.57
647.35	494.71
647.69	492.86
648.04	491.00
648.38	489.05
648.72	487.13
649.06	485.00
649.41	482.94
649.75	480.86
650.09	478.93
650.43	476.82
650.78	474.64
651.12	472.58
651.46	470.73
651.80	468.87
652.14	467.23
652.49	465.43
652.83	463.43
653.17	461.14
653.51	458.96
653.85	457.25
654.20	455.27
654.54	453.23
654.88	451.29
655.22	449.33
655.56	447.50
655.90	445.60
656.25	443.86
656.59	442.00
656.93	440.14
657.27	438.30
657.61	436.44
657.95	434.87
658.29	433.10
658.64	431.32
658.98	429.42
659.32	427.45
659.66	425.59
660.00	423.94
660.34	422.20
660.68	420.47
661.02	418.53
661.36	416.84
661.70	415.13
662.05	413.44
662.39	411.77
662.73	410.09
663.07	408.52
663.41	406.82
663.75	405.17
664.09	403.68
664.43	402.00
664.77	400.44
665.11	398.71
665.45	397.23
665.79	395.72
666.13	394.18
666.47	392.66
666.81	391.21
667.15	389.57
667.49	388.23
667.83	386.87
668.17	385.56
668.51	384.15
668.85	382.80
669.19	381.53
669.53	379.94
669.87	378.46
670.21	377.00
670.55	375.59
670.89	374.40
671.23	372.98
671.57	371.70
671.91	370.44
672.25	369.20
672.58	367.96
672.92	366.62
673.26	365.40
673.60	364.16
673.94	362.81
674.28	361.66
674.62	360.50
674.96	359.31
675.30	358.13
675.64	356.99
675.97	355.75
676.31	354.44
676.65	353.38
676.99	352.40
677.33	351.27
677.67	350.29
678.01	349.03
678.34	348.06
678.68	347.15
679.02	346.10
679.36	345.06
679.70	344.01
680.04	343.03
680.37	341.95
680.71	340.94
681.05	340.06
681.39	339.11
681.73	338.11
682.06	337.17
682.40	336.29
682.74	335.42
683.08	334.60
683.42	333.62
683.75	332.79
684.09	331.84
684.43	331.01
684.77	330.00
685.10	329.12
685.44	328.16
685.78	327.15
686.12	326.20
686.45	325.20
686.79	324.30
687.13	323.48
687.46	322.77
687.80	321.99
688.14	321.10
688.48	320.29
688.81	319.45
689.15	318.65
689.49	317.73
689.82	316.91
690.16	316.03
690.50	315.32
690.83	314.53
691.17	313.61
691.51	312.73
691.84	312.00
692.18	311.16
692.52	310.40
692.85	309.67
693.19	309.05
693.52	308.41
693.86	307.70
694.20	306.95
694.53	306.13
694.87	305.40
695.21	304.63
695.54	303.87
695.88	303.08
696.21	302.27
696.55	301.60
696.88	300.85
697.22	300.09
697.56	299.45
697.89	298.76
698.23	298.25
698.56	297.67
698.90	297.06
699.23	296.46
699.57	295.90
699.90	295.32
700.24	294.68
700.58	294.10
700.91	293.51
701.25	293.17
701.58	292.67
701.92	292.18
702.25	291.70
702.59	291.24
702.92	290.85
703.26	290.46
703.59	289.96
703.93	289.74
704.26	289.38
704.60	288.85
704.93	288.33
705.26	287.83
705.60	287.41
705.93	286.91
706.27	286.54
706.60	286.12
706.94	285.62
707.27	285.10
707.61	284.65
707.94	284.19
708.27	283.52
708.61	282.99
708.94	282.47
709.28	282.02
709.61	281.44
709.94	280.89
710.28	280.34
710.61	279.87
710.95	279.11
711.28	278.71
711.61	278.19
711.95	277.81
712.28	277.21
712.61	276.64
712.95	276.27
713.28	275.83
713.61	275.27
713.95	274.75
714.28	274.21
714.61	273.70
714.95	273.23
715.28	272.74
715.61	272.22
715.95	271.77
716.28	271.29
716.61	270.99
716.95	270.56
717.28	270.20
717.61	269.81
717.94	269.47
718.28	268.95
718.61	268.61
718.94	268.24
719.27	267.89
719.61	267.62
719.94	267.25
720.27	266.83
720.60	266.50
720.94	266.15
721.27	265.88
721.60	265.66
721.93	265.32
722.27	265.11
722.60	264.89
722.93	264.58
723.26	264.34
723.59	264.05
723.93	263.89
724.26	263.64
724.59	263.39
724.92	263.09
725.25	262.98
725.59	262.74
725.92	262.48
726.25	262.32
726.58	262.10
726.91	261.80
727.24	261.56
727.57	261.40
727.91	261.17
728.24	261.01
728.57	260.78
728.90	260.61
729.23	260.34
729.56	260.28
729.89	260.16
730.22	259.98
730.55	259.71
730.89	259.38
731.22	259.16
731.55	258.99
731.88	258.82
732.21	258.44
732.54	258.20
732.87	258.00
733.20	257.81
733.53	257.61
733.86	257.46
734.19	257.25
734.52	257.04
734.85	256.99
735.18	256.78
735.51	256.64
735.84	256.45
736.17	256.34
736.50	256.02
736.83	255.95
737.16	255.74
737.49	255.62
737.82	255.46
738.15	255.31
738.48	255.08
738.81	254.89
739.14	254.72
739.47	254.50
739.80	254.34
740.13	254.18
740.46	253.90
740.79	253.64
741.12	253.46
741.45	253.27
741.78	253.00
742.11	252.88
742.44	252.68
742.77	252.56
743.10	252.37
743.43	252.17
743.75	251.87
744.08	251.96
744.41	251.74
744.74	251.58
745.07	251.34
745.40	251.21
745.73	251.13
746.06	251.04
746.39	250.96
746.71	250.74
747.04	250.52
747.37	250.41
747.70	250.32
748.03	250.20
748.36	250.05
748.68	249.96
749.01	249.71
749.34	249.57
749.67	249.45
750.00	249.34
750.33	249.40
750.65	249.28
750.98	248.87
751.31	248.79
751.64	248.75
751.97	248.80
752.29	248.62
752.62	248.43
752.95	248.26
753.28	248.10
753.60	248.01
753.93	247.94
754.26	247.80
754.59	247.61
754.91	247.42
755.24	247.27
755.57	247.08
755.90	247.04
756.22	246.86
756.55	246.66
756.88	246.49
757.20	246.19
757.53	245.98
757.86	245.84
758.19	245.73
758.51	245.54
758.84	245.33
759.17	245.26
759.49	245.17
759.82	245.20
760.15	245.16
760.47	245.07
760.80	244.94
761.13	244.94
761.45	244.85
761.78	244.78
762.11	244.73
762.43	244.69
762.76	244.56
763.08	244.48
763.41	244.45
763.74	244.40
764.06	244.36
764.39	244.31
764.71	244.26
765.04	244.16
765.37	244.11
765.69	244.03
766.02	243.97
766.34	243.90
766.67	243.71
767.00	243.61
767.32	243.68
767.65	243.76
767.97	243.66
768.30	243.66
768.62	243.65
768.95	243.58
769.27	243.48
769.60	243.39
769.92	243.33
770.25	243.20
770.57	243.13
770.90	243.06
771.22	243.01
771.55	242.98
771.87	242.97
772.20	242.89
772.52	242.97
772.85	243.17
773.17	243.10
773.50	243.07
773.82	243.00
774.15	242.80
774.47	242.57
774.80	242.51
775.12	242.44
775.45	242.37
775.77	242.29
776.09	242.24
776.42	242.27
776.74	242.40
777.07	242.33
777.39	242.24
777.72	242.15
778.04	242.10
778.36	241.95
778.69	241.90
779.01	241.88
779.33	241.63
779.66	241.29
779.98	241.23
780.31	241.22
780.63	241.30
780.95	241.29
781.28	241.26
781.60	241.18
781.92	241.07
782.25	240.98
782.57	241.01
782.89	241.02
783.22	240.94
783.54	240.75
783.86	240.77
784.19	240.76
784.51	240.86
784.83	240.79
785.16	240.85
785.48	240.76
785.80	240.71
786.12	240.76
786.45	240.74
786.77	240.65
787.09	240.53
787.42	240.39
787.74	240.32
788.06	240.28
788.38	240.24
788.71	240.22
789.03	240.21
789.35	240.12
789.67	240.05
789.99	239.98
790.32	239.91
790.64	239.91
790.96	240.02
791.28	239.85
791.61	239.79
791.93	239.70
792.25	239.67
792.57	239.77
792.89	239.67
793.21	239.63
793.54	239.65
793.86	239.60
794.18	239.61
