SpectraSuite Data File
++++++++++++++++++++++++++++++++++++
Date: Mon Oct 22 15:13:41 EDT 2012
User: group
Dark Spectrum Present: No
Reference Spectrum Present: No
Number of Sampled Component Spectra: 1
Spectrometers: USB2E7196
Integration Time (usec): 91000 (USB2E7196)
Spectra Averaged: 30 (USB2E7196)
Boxcar Smoothing: 10 (USB2E7196)
Correct for Electrical Dark: No (USB2E7196)
Strobe/Lamp Enabled: No (USB2E7196)
Correct for Detector Non-linearity: No (USB2E7196)
Correct for Stray Light: No (USB2E7196)
Number of Pixels in Processed Spectrum: 2048
>>>>>Begin Processed Spectral Data<<<<<
339.09	0.00
339.48	223.27
339.86	225.10
340.24	228.03
340.63	228.87
341.01	233.23
341.39	230.63
341.78	231.47
342.16	232.80
342.54	233.03
342.93	221.93
343.31	233.15
343.69	233.75
344.07	234.22
344.46	234.61
344.84	234.92
345.22	235.03
345.60	235.29
345.99	235.54
346.37	235.69
346.75	235.84
347.13	235.95
347.52	236.05
347.90	236.19
348.28	236.23
348.66	236.29
349.05	236.32
349.43	236.44
349.81	236.55
350.19	236.62
350.57	236.72
350.96	236.77
351.34	236.86
351.72	236.95
352.10	237.11
352.48	237.16
352.87	237.30
353.25	237.40
353.63	237.49
354.01	237.56
354.39	237.70
354.77	237.82
355.15	237.97
355.54	237.99
355.92	238.00
356.30	238.15
356.68	238.35
357.06	238.41
357.44	238.41
357.82	238.50
358.20	238.58
358.58	238.58
358.97	238.70
359.35	238.86
359.73	238.99
360.11	239.05
360.49	239.09
360.87	239.13
361.25	239.21
361.63	239.34
362.01	239.44
362.39	239.46
362.77	239.49
363.15	239.53
363.53	239.61
363.91	239.60
364.29	239.56
364.67	239.41
365.05	239.51
365.43	239.60
365.81	239.64
366.19	239.73
366.57	239.85
366.95	239.80
367.33	239.71
367.71	239.71
368.09	239.73
368.47	239.75
368.85	239.76
369.23	239.85
369.61	239.75
369.99	239.72
370.37	239.73
370.75	239.81
371.13	239.74
371.51	239.70
371.89	239.67
372.27	239.62
372.65	239.60
373.03	239.55
373.41	239.47
373.78	239.40
374.16	239.30
374.54	239.20
374.92	239.18
375.30	239.12
375.68	238.99
376.06	238.93
376.44	238.88
376.82	238.80
377.19	238.66
377.57	238.58
377.95	238.49
378.33	238.35
378.71	238.18
379.09	238.11
379.47	238.05
379.84	238.00
380.22	238.00
380.60	237.89
380.98	237.84
381.36	237.73
381.73	237.63
382.11	237.58
382.49	237.56
382.87	237.47
383.25	237.46
383.62	237.66
384.00	237.55
384.38	237.50
384.76	237.50
385.13	237.54
385.51	237.50
385.89	237.43
386.27	237.46
386.64	237.41
387.02	237.38
387.40	237.31
387.78	237.30
388.15	237.25
388.53	237.17
388.91	237.10
389.29	237.12
389.66	237.09
390.04	237.05
390.42	237.03
390.79	236.99
391.17	236.93
391.55	236.66
391.92	236.65
392.30	236.67
392.68	236.62
393.05	236.59
393.43	236.60
393.81	236.63
394.18	236.59
394.56	236.65
394.94	236.71
395.31	236.65
395.69	236.73
396.06	236.72
396.44	236.80
396.82	236.85
397.19	236.94
397.57	236.98
397.95	237.06
398.32	237.06
398.70	237.20
399.07	237.28
399.45	237.30
399.82	237.36
400.20	237.42
400.58	237.49
400.95	237.52
401.33	237.61
401.70	237.88
402.08	237.97
402.45	238.04
402.83	238.27
403.20	238.47
403.58	238.55
403.95	238.78
404.33	239.00
404.71	239.15
405.08	239.49
405.46	239.72
405.83	239.97
406.21	240.23
406.58	240.46
406.96	240.78
407.33	241.23
407.70	241.61
408.08	242.18
408.45	242.67
408.83	243.20
409.20	243.70
409.58	244.06
409.95	244.66
410.33	245.33
410.70	245.87
411.08	246.60
411.45	247.43
411.82	248.20
412.20	249.07
412.57	250.13
412.95	250.97
413.32	252.06
413.69	253.15
414.07	254.43
414.44	255.82
414.82	257.20
415.19	258.81
415.56	260.49
415.94	262.17
416.31	264.17
416.68	266.07
417.06	268.26
417.43	270.44
417.81	272.85
418.18	275.32
418.55	277.98
418.93	280.92
419.30	283.84
419.67	286.97
420.04	290.29
420.42	293.78
420.79	297.74
421.16	301.75
421.54	305.83
421.91	310.11
422.28	314.66
422.66	319.50
423.03	324.09
423.40	328.98
423.77	334.22
424.15	339.56
424.52	345.28
424.89	351.44
425.26	357.41
425.64	363.13
426.01	369.30
426.38	375.84
426.75	382.38
427.13	389.32
427.50	396.63
427.87	404.21
428.24	411.85
428.61	419.30
428.99	427.33
429.36	436.16
429.73	444.88
430.10	453.52
430.47	462.37
430.85	471.82
431.22	481.53
431.59	491.95
431.96	501.99
432.33	513.04
432.70	523.96
433.08	536.68
433.45	548.85
433.82	561.03
434.19	574.49
434.56	587.66
434.93	600.34
435.30	613.13
435.68	627.19
436.05	641.13
436.42	654.94
436.79	667.72
437.16	681.54
437.53	695.98
437.90	710.48
438.27	724.80
438.64	739.29
439.01	753.17
439.38	765.67
439.75	777.68
440.13	791.21
440.50	804.03
440.87	814.66
441.24	825.51
441.61	837.37
441.98	846.50
442.35	857.03
442.72	867.45
443.09	877.41
443.46	883.72
443.83	887.92
444.20	891.85
444.57	897.30
444.94	900.01
445.31	902.76
445.68	904.98
446.05	906.19
446.42	905.56
446.79	904.27
447.16	902.63
447.53	901.36
447.90	896.34
448.27	891.04
448.64	883.92
449.01	878.73
449.37	869.57
449.74	860.61
450.11	849.74
450.48	838.23
450.85	826.44
451.22	816.29
451.59	807.00
451.96	797.87
452.33	785.73
452.70	774.82
453.07	761.73
453.43	748.69
453.80	735.81
454.17	723.41
454.54	711.76
454.91	699.41
455.28	687.37
455.65	676.22
456.02	664.88
456.38	655.43
456.75	643.75
457.12	634.12
457.49	624.41
457.86	615.20
458.23	607.11
458.59	598.24
458.96	589.41
459.33	581.49
459.70	573.50
460.07	566.97
460.43	559.64
460.80	552.72
461.17	546.61
461.54	540.45
461.91	534.49
462.27	528.43
462.64	523.19
463.01	517.54
463.38	512.01
463.74	506.79
464.11	501.91
464.48	497.63
464.85	492.95
465.21	489.50
465.58	485.79
465.95	481.30
466.32	477.67
466.68	473.88
467.05	470.08
467.42	466.39
467.78	462.71
468.15	458.96
468.52	456.28
468.88	452.89
469.25	449.76
469.62	447.21
469.98	444.52
470.35	441.99
470.72	439.60
471.08	437.04
471.45	434.91
471.82	432.60
472.18	430.15
472.55	428.44
472.92	426.37
473.28	424.60
473.65	422.99
474.02	421.30
474.38	419.94
474.75	418.78
475.11	417.51
475.48	416.42
475.85	415.76
476.21	414.91
476.58	414.27
476.94	413.76
477.31	413.06
477.67	412.50
478.04	412.22
478.41	412.02
478.77	412.00
479.14	411.81
479.50	411.87
479.87	412.26
480.23	412.59
480.60	412.76
480.96	413.01
481.33	413.68
481.69	414.27
482.06	414.83
482.42	415.25
482.79	415.87
483.15	416.84
483.52	417.95
483.88	419.01
484.25	420.03
484.61	421.27
484.98	422.56
485.34	424.15
485.71	425.74
486.07	427.47
486.44	429.10
486.80	431.03
487.17	433.04
487.53	435.16
487.90	437.34
488.26	439.77
488.62	442.36
488.99	444.84
489.35	447.43
489.72	450.19
490.08	453.27
490.44	456.34
490.81	459.63
491.17	462.76
491.54	466.35
491.90	469.97
492.26	473.63
492.63	477.48
492.99	481.27
493.36	485.24
493.72	489.43
494.08	493.67
494.45	498.04
494.81	502.67
495.17	507.19
495.54	511.94
495.90	516.91
496.26	521.79
496.63	526.74
496.99	532.12
497.35	537.57
497.72	543.19
498.08	548.82
498.44	554.43
498.80	560.40
499.17	566.20
499.53	572.19
499.89	578.28
500.26	584.21
500.62	590.25
500.98	596.62
501.34	602.99
501.71	609.46
502.07	615.92
502.43	622.41
502.79	629.00
503.16	635.76
503.52	642.28
503.88	649.02
504.24	655.69
504.60	662.08
504.97	668.64
505.33	675.18
505.69	682.06
506.05	688.65
506.41	695.16
506.78	701.76
507.14	708.25
507.50	714.87
507.86	721.61
508.22	728.21
508.59	734.42
508.95	740.75
509.31	747.17
509.67	753.47
510.03	759.43
510.39	765.42
510.75	771.18
511.12	776.87
511.48	782.33
511.84	787.90
512.20	793.36
512.56	798.77
512.92	803.94
513.28	808.92
513.64	813.89
514.00	818.50
514.37	822.73
514.73	827.02
515.09	830.96
515.45	834.78
515.81	838.67
516.17	842.31
516.53	845.58
516.89	848.92
517.25	851.94
517.61	855.03
517.97	857.79
518.33	860.08
518.69	862.56
519.05	864.87
519.41	866.90
519.77	869.06
520.13	870.90
520.49	872.54
520.85	873.87
521.21	875.28
521.57	876.77
521.93	877.81
522.29	878.76
522.65	879.58
523.01	880.33
523.37	880.62
523.73	881.10
524.09	881.27
524.45	881.02
524.81	880.99
525.17	880.81
525.53	880.70
525.89	880.71
526.25	880.42
526.61	879.92
526.97	879.47
527.33	878.97
527.68	878.67
528.04	878.14
528.40	877.42
528.76	876.56
529.12	875.65
529.48	874.98
529.84	873.89
530.20	873.04
530.56	871.82
530.91	871.09
531.27	870.29
531.63	869.67
531.99	868.96
532.35	867.97
532.71	866.94
533.07	865.97
533.42	864.99
533.78	864.10
534.14	863.30
534.50	862.48
534.86	861.81
535.21	860.67
535.57	859.71
535.93	858.69
536.29	858.03
536.65	857.33
537.00	856.72
537.36	856.40
537.72	855.82
538.08	855.71
538.44	855.15
538.79	854.45
539.15	853.70
539.51	853.51
539.87	853.29
540.22	852.78
540.58	852.53
540.94	852.25
541.29	851.83
541.65	851.47
542.01	851.34
542.37	850.98
542.72	850.60
543.08	850.26
543.44	850.27
543.79	849.72
544.15	849.43
544.51	849.40
544.87	849.06
545.22	848.70
545.58	848.47
545.94	848.18
546.29	847.96
546.65	847.66
547.01	847.11
547.36	846.99
547.72	846.99
548.07	846.77
548.43	846.73
548.79	846.72
549.14	846.67
549.50	846.79
549.86	846.93
550.21	847.18
550.57	847.66
550.92	847.85
551.28	848.26
551.64	848.52
551.99	848.70
552.35	849.22
552.70	849.61
553.06	849.84
553.41	850.30
553.77	851.05
554.13	851.77
554.48	852.66
554.84	853.28
555.19	854.34
555.55	855.61
555.90	856.43
556.26	857.35
556.61	858.37
556.97	858.86
557.32	859.63
557.68	860.55
558.03	861.53
558.39	862.58
558.74	863.80
559.10	864.98
559.45	866.18
559.81	867.49
560.16	868.85
560.52	870.33
560.87	872.03
561.23	873.53
561.58	875.56
561.94	877.12
562.29	878.59
562.64	880.08
563.00	881.35
563.35	882.87
563.71	884.43
564.06	885.93
564.42	887.39
564.77	888.48
565.12	889.79
565.48	891.43
565.83	892.93
566.19	894.65
566.54	896.22
566.89	897.58
567.25	898.75
567.60	900.33
567.96	901.61
568.31	902.61
568.66	903.67
569.02	904.37
569.37	905.08
569.72	906.00
570.08	906.58
570.43	907.25
570.78	908.11
571.14	908.72
571.49	909.38
571.84	910.60
572.20	911.78
572.55	912.96
572.90	913.40
573.26	913.98
573.61	914.02
573.96	914.18
574.31	914.39
574.67	914.48
575.02	914.31
575.37	914.45
575.72	914.52
576.08	914.70
576.43	914.83
576.78	914.99
577.13	915.30
577.49	915.71
577.84	916.10
578.19	916.37
578.54	916.53
578.90	916.63
579.25	916.40
579.60	916.01
579.95	915.12
580.30	914.89
580.66	914.71
581.01	914.81
581.36	914.68
581.71	914.61
582.06	914.64
582.42	914.52
582.77	914.01
583.12	913.74
583.47	913.29
583.82	912.73
584.17	912.03
584.53	911.12
584.88	910.33
585.23	909.32
585.58	908.21
585.93	907.16
586.28	906.14
586.63	905.02
586.98	904.06
587.34	903.49
587.69	902.15
588.04	900.83
588.39	899.27
588.74	897.56
589.09	896.14
589.44	894.62
589.79	893.20
590.14	891.94
590.49	890.16
590.84	888.47
591.19	886.89
591.54	885.36
591.89	883.50
592.25	881.73
592.60	879.56
592.95	877.45
593.30	875.61
593.65	873.65
594.00	871.76
594.35	870.63
594.70	868.65
595.05	867.11
595.40	865.26
595.75	863.30
596.10	861.70
596.45	859.33
596.80	857.10
597.15	854.75
597.50	852.51
597.85	850.77
598.19	848.74
598.54	846.32
598.89	844.11
599.24	842.28
599.59	840.14
599.94	838.36
600.29	836.42
600.64	834.32
600.99	832.22
601.34	830.00
601.69	826.85
602.04	824.45
602.39	821.78
602.74	819.40
603.08	817.23
603.43	814.99
603.78	812.91
604.13	810.95
604.48	809.03
604.83	807.13
605.18	804.99
605.53	802.93
605.87	801.37
606.22	800.09
606.57	798.87
606.92	797.74
607.27	796.69
607.62	795.71
607.96	794.58
608.31	793.52
608.66	792.18
609.01	790.84
609.36	789.41
609.70	787.71
610.05	785.83
610.40	784.02
610.75	782.02
611.10	780.23
611.44	777.78
611.79	775.52
612.14	773.06
612.49	770.16
612.83	767.38
613.18	764.41
613.53	760.96
613.88	757.10
614.22	753.13
614.57	749.12
614.92	744.91
615.27	741.05
615.61	737.03
615.96	733.40
616.31	729.82
616.65	726.18
617.00	722.78
617.35	719.74
617.70	716.29
618.04	712.98
618.39	709.88
618.74	707.20
619.08	703.99
619.43	700.84
619.78	697.93
620.12	694.94
620.47	692.14
620.82	689.27
621.16	686.53
621.51	683.91
621.85	681.13
622.20	678.47
622.55	675.70
622.89	673.13
623.24	670.59
623.59	667.96
623.93	665.44
624.28	662.79
624.62	659.95
624.97	657.36
625.32	654.58
625.66	651.61
626.01	648.71
626.35	646.29
626.70	643.60
627.04	641.30
627.39	638.91
627.73	636.39
628.08	633.77
628.43	631.00
628.77	628.17
629.12	625.54
629.46	623.04
629.81	620.42
630.15	617.62
630.50	614.88
630.84	612.15
631.19	609.32
631.53	606.73
631.88	603.99
632.22	601.34
632.57	598.81
632.91	596.32
633.26	593.55
633.60	590.65
633.95	587.87
634.29	584.84
634.64	581.92
634.98	578.85
635.32	576.00
635.67	573.52
636.01	570.99
636.36	568.25
636.70	565.63
637.05	562.90
637.39	560.32
637.73	557.60
638.08	555.07
638.42	552.69
638.77	550.24
639.11	547.80
639.45	545.30
639.80	542.79
640.14	540.30
640.49	537.87
640.83	535.59
641.17	533.32
641.52	531.28
641.86	529.19
642.20	527.20
642.55	525.23
642.89	523.14
643.23	521.07
643.58	519.20
643.92	517.00
644.26	514.86
644.61	512.83
644.95	510.76
645.29	508.59
645.64	506.57
645.98	504.69
646.32	502.81
646.66	500.69
647.01	498.67
647.35	496.74
647.69	494.77
648.04	492.87
648.38	490.96
648.72	488.80
649.06	486.60
649.41	484.52
649.75	482.41
650.09	480.43
650.43	478.43
650.78	476.11
651.12	474.11
651.46	472.24
651.80	470.41
652.14	468.60
652.49	466.86
652.83	464.73
653.17	462.43
653.51	460.26
653.85	458.40
654.20	456.37
654.54	454.32
654.88	452.41
655.22	450.46
655.56	448.59
655.90	446.80
656.25	444.91
656.59	443.11
656.93	441.26
657.27	439.40
657.61	437.46
657.95	435.91
658.29	434.07
658.64	432.31
658.98	430.39
659.32	428.46
659.66	426.65
660.00	424.87
660.34	423.13
660.68	421.27
661.02	419.33
661.36	417.59
661.70	415.85
662.05	414.22
662.39	412.57
662.73	410.87
663.07	409.19
663.41	407.71
663.75	406.06
664.09	404.46
664.43	402.85
664.77	401.32
665.11	399.67
665.45	398.10
665.79	396.59
666.13	394.98
666.47	393.47
666.81	391.85
667.15	390.22
667.49	388.80
667.83	387.53
668.17	386.18
668.51	384.82
668.85	383.48
669.19	382.09
669.53	380.69
669.87	379.27
670.21	377.91
670.55	376.47
670.89	375.26
671.23	373.96
671.57	372.56
671.91	371.22
672.25	369.93
672.58	368.78
672.92	367.45
673.26	366.29
673.60	365.04
673.94	363.87
674.28	362.81
674.62	361.71
674.96	360.44
675.30	359.19
675.64	358.16
675.97	356.93
676.31	355.75
676.65	354.56
676.99	353.57
677.33	352.44
677.67	351.38
678.01	350.23
678.34	349.22
678.68	348.21
679.02	347.20
679.36	346.20
679.70	345.17
680.04	344.14
680.37	343.01
680.71	341.96
681.05	340.96
681.39	339.92
681.73	338.84
682.06	337.92
682.40	337.08
682.74	336.10
683.08	335.34
683.42	334.39
683.75	333.59
684.09	332.58
684.43	331.64
684.77	330.61
685.10	329.67
685.44	328.64
685.78	327.67
686.12	326.76
686.45	325.80
686.79	324.87
687.13	324.04
687.46	323.25
687.80	322.53
688.14	321.70
688.48	320.91
688.81	320.14
689.15	319.33
689.49	318.51
689.82	317.64
690.16	316.73
690.50	316.01
690.83	315.17
691.17	314.24
691.51	313.47
691.84	312.82
692.18	311.97
692.52	311.20
692.85	310.50
693.19	309.82
693.52	309.05
693.86	308.34
694.20	307.68
694.53	306.97
694.87	306.16
695.21	305.41
695.54	304.68
695.88	303.82
696.21	302.99
696.55	302.23
696.88	301.54
697.22	300.81
697.56	300.17
697.89	299.50
698.23	298.92
698.56	298.33
698.90	297.70
699.23	297.07
699.57	296.53
699.90	295.90
700.24	295.31
700.58	294.78
700.91	294.30
701.25	293.86
701.58	293.40
701.92	292.97
702.25	292.51
702.59	292.03
702.92	291.66
703.26	291.30
703.59	290.92
703.93	290.65
704.26	290.22
704.60	289.66
704.93	289.14
705.26	288.69
705.60	288.18
705.93	287.65
706.27	287.20
706.60	286.77
706.94	286.37
707.27	285.90
707.61	285.49
707.94	285.00
708.27	284.35
708.61	283.83
708.94	283.27
709.28	282.75
709.61	282.22
709.94	281.68
710.28	281.12
710.61	280.56
710.95	279.79
711.28	279.34
711.61	278.83
711.95	278.35
712.28	277.85
712.61	277.32
712.95	276.87
713.28	276.48
713.61	275.93
713.95	275.37
714.28	274.84
714.61	274.26
714.95	273.69
715.28	273.19
715.61	272.64
715.95	272.22
716.28	271.75
716.61	271.30
716.95	270.83
717.28	270.36
717.61	269.95
717.94	269.63
718.28	269.10
718.61	268.74
718.94	268.42
719.27	268.09
719.61	267.80
719.94	267.57
720.27	267.17
720.60	266.82
720.94	266.48
721.27	266.13
721.60	265.89
721.93	265.59
722.27	265.32
722.60	265.05
722.93	264.71
723.26	264.51
723.59	264.22
723.93	263.95
724.26	263.75
724.59	263.48
724.92	263.16
725.25	263.03
725.59	262.77
725.92	262.53
726.25	262.24
726.58	262.00
726.91	261.64
727.24	261.41
727.57	261.18
727.91	260.89
728.24	260.68
728.57	260.47
728.90	260.30
729.23	260.04
729.56	259.99
729.89	259.83
730.22	259.57
730.55	259.37
730.89	259.24
731.22	259.00
731.55	258.78
731.88	258.60
732.21	258.31
732.54	258.10
732.87	257.85
733.20	257.64
733.53	257.41
733.86	257.20
734.19	256.93
734.52	256.79
734.85	256.77
735.18	256.53
735.51	256.33
735.84	256.18
736.17	256.02
736.50	255.66
736.83	255.63
737.16	255.40
737.49	255.27
737.82	255.00
738.15	254.81
738.48	254.65
738.81	254.45
739.14	254.26
739.47	254.03
739.80	253.89
740.13	253.70
740.46	253.45
740.79	253.26
741.12	253.09
741.45	252.82
741.78	252.54
742.11	252.47
742.44	252.32
742.77	252.14
743.10	251.95
743.43	251.79
743.75	251.44
744.08	251.59
744.41	251.43
744.74	251.30
745.07	251.14
745.40	251.01
745.73	250.94
746.06	250.75
746.39	250.69
746.71	250.50
747.04	250.38
747.37	250.24
747.70	250.16
748.03	250.07
748.36	249.98
748.68	249.83
749.01	249.61
749.34	249.48
749.67	249.39
750.00	249.33
750.33	249.36
750.65	249.23
750.98	248.85
751.31	248.69
751.64	248.57
751.97	248.56
752.29	248.40
752.62	248.19
752.95	248.07
753.28	247.88
753.60	247.75
753.93	247.69
754.26	247.64
754.59	247.53
754.91	247.33
755.24	247.15
755.57	247.00
755.90	246.93
756.22	246.71
756.55	246.46
756.88	246.27
757.20	246.01
757.53	245.89
757.86	245.76
758.19	245.72
758.51	245.67
758.84	245.45
759.17	245.34
759.49	245.30
759.82	245.32
760.15	245.25
760.47	245.12
760.80	244.95
761.13	244.89
761.45	244.70
761.78	244.63
762.11	244.60
762.43	244.52
762.76	244.39
763.08	244.38
763.41	244.37
763.74	244.26
764.06	244.14
764.39	244.01
764.71	243.89
765.04	243.69
765.37	243.50
765.69	243.38
766.02	243.29
766.34	243.14
766.67	242.97
767.00	242.90
767.32	242.99
767.65	243.04
767.97	242.92
768.30	242.90
768.62	242.83
768.95	242.69
769.27	242.65
769.60	242.63
769.92	242.54
770.25	242.48
770.57	242.38
770.90	242.33
771.22	242.26
771.55	242.23
771.87	242.23
772.20	242.18
772.52	242.34
772.85	242.53
773.17	242.52
773.50	242.49
773.82	242.50
774.15	242.30
774.47	242.10
774.80	242.04
775.12	241.93
775.45	241.87
775.77	241.88
776.09	241.84
776.42	241.81
776.74	241.77
777.07	241.69
777.39	241.68
777.72	241.61
778.04	241.57
778.36	241.52
778.69	241.45
779.01	241.46
779.33	241.24
779.66	240.95
779.98	240.90
780.31	240.90
780.63	240.87
780.95	240.93
781.28	240.90
781.60	240.86
781.92	240.87
782.25	240.84
782.57	240.81
782.89	240.82
783.22	240.79
783.54	240.80
783.86	240.81
784.19	240.79
784.51	240.83
784.83	240.85
785.16	240.82
785.48	240.81
785.80	240.80
786.12	240.75
786.45	240.75
786.77	240.71
787.09	240.62
787.42	240.52
787.74	240.49
788.06	240.46
788.38	240.47
788.71	240.39
789.03	240.46
789.35	240.43
789.67	240.30
789.99	240.26
790.32	240.13
790.64	240.09
790.96	240.26
791.28	240.12
791.61	240.05
791.93	240.05
792.25	239.98
792.57	240.07
792.89	240.03
793.21	239.95
793.54	239.89
793.86	239.84
794.18	239.81
