SpectraSuite Data File
++++++++++++++++++++++++++++++++++++
Date: Mon Oct 22 15:13:56 EDT 2012
User: group
Dark Spectrum Present: No
Reference Spectrum Present: No
Number of Sampled Component Spectra: 1
Spectrometers: USB2E7196
Integration Time (usec): 91000 (USB2E7196)
Spectra Averaged: 30 (USB2E7196)
Boxcar Smoothing: 10 (USB2E7196)
Correct for Electrical Dark: No (USB2E7196)
Strobe/Lamp Enabled: No (USB2E7196)
Correct for Detector Non-linearity: No (USB2E7196)
Correct for Stray Light: No (USB2E7196)
Number of Pixels in Processed Spectrum: 2048
>>>>>Begin Processed Spectral Data<<<<<
339.09	0.00
339.48	225.67
339.86	226.90
340.24	227.03
340.63	227.83
341.01	232.70
341.39	230.87
341.78	233.50
342.16	232.73
342.54	235.23
342.93	222.53
343.31	233.71
343.69	234.17
344.07	234.61
344.46	235.01
344.84	235.43
345.22	235.59
345.60	235.84
345.99	236.00
346.37	236.17
346.75	236.22
347.13	236.29
347.52	236.32
347.90	236.40
348.28	236.41
348.66	236.42
349.05	236.36
349.43	236.39
349.81	236.45
350.19	236.46
350.57	236.50
350.96	236.57
351.34	236.67
351.72	236.75
352.10	236.82
352.48	236.87
352.87	236.94
353.25	237.00
353.63	237.07
354.01	237.06
354.39	237.11
354.77	237.18
355.15	237.31
355.54	237.35
355.92	237.34
356.30	237.37
356.68	237.62
357.06	237.68
357.44	237.70
357.82	237.72
358.20	237.79
358.58	237.85
358.97	237.90
359.35	238.06
359.73	238.08
360.11	238.09
360.49	238.20
360.87	238.30
361.25	238.36
361.63	238.47
362.01	238.56
362.39	238.62
362.77	238.65
363.15	238.65
363.53	238.62
363.91	238.60
364.29	238.63
364.67	238.46
365.05	238.44
365.43	238.51
365.81	238.55
366.19	238.69
366.57	238.76
366.95	238.77
367.33	238.69
367.71	238.75
368.09	238.80
368.47	238.75
368.85	238.73
369.23	238.80
369.61	238.71
369.99	238.72
370.37	238.70
370.75	238.82
371.13	238.80
371.51	238.79
371.89	238.85
372.27	238.82
372.65	238.77
373.03	238.74
373.41	238.71
373.78	238.63
374.16	238.48
374.54	238.35
374.92	238.30
375.30	238.32
375.68	238.23
376.06	238.21
376.44	238.16
376.82	238.04
377.19	237.93
377.57	237.89
377.95	237.79
378.33	237.76
378.71	237.63
379.09	237.59
379.47	237.62
379.84	237.48
380.22	237.48
380.60	237.40
380.98	237.39
381.36	237.30
381.73	237.27
382.11	237.25
382.49	237.25
382.87	237.25
383.25	237.13
383.62	237.34
384.00	237.22
384.38	237.23
384.76	237.26
385.13	237.27
385.51	237.27
385.89	237.22
386.27	237.20
386.64	237.07
387.02	237.03
387.40	236.94
387.78	236.97
388.15	236.94
388.53	236.93
388.91	236.91
389.29	236.86
389.66	236.84
390.04	236.80
390.42	236.77
390.79	236.70
391.17	236.70
391.55	236.45
391.92	236.48
392.30	236.48
392.68	236.41
393.05	236.40
393.43	236.38
393.81	236.44
394.18	236.36
394.56	236.47
394.94	236.46
395.31	236.48
395.69	236.57
396.06	236.58
396.44	236.64
396.82	236.67
397.19	236.84
397.57	236.88
397.95	236.94
398.32	236.97
398.70	237.04
399.07	237.15
399.45	237.25
399.82	237.32
400.20	237.42
400.58	237.53
400.95	237.57
401.33	237.72
401.70	237.94
402.08	238.12
402.45	238.20
402.83	238.44
403.20	238.62
403.58	238.74
403.95	238.96
404.33	239.17
404.71	239.37
405.08	239.64
405.46	239.87
405.83	240.17
406.21	240.44
406.58	240.82
406.96	241.08
407.33	241.42
407.70	241.86
408.08	242.36
408.45	242.84
408.83	243.35
409.20	243.83
409.58	244.25
409.95	244.78
410.33	245.48
410.70	246.09
411.08	246.83
411.45	247.62
411.82	248.38
412.20	249.27
412.57	250.33
412.95	251.24
413.32	252.35
413.69	253.52
414.07	254.76
414.44	256.06
414.82	257.49
415.19	259.12
415.56	260.74
415.94	262.43
416.31	264.37
416.68	266.30
417.06	268.48
417.43	270.62
417.81	273.11
418.18	275.61
418.55	278.25
418.93	281.04
419.30	284.04
419.67	287.14
420.04	290.36
420.42	293.76
420.79	297.59
421.16	301.53
421.54	305.49
421.91	309.71
422.28	314.10
422.66	318.85
423.03	323.35
423.40	328.20
423.77	333.42
424.15	338.76
424.52	344.28
424.89	350.39
425.26	356.24
425.64	361.83
426.01	367.90
426.38	374.50
426.75	381.13
427.13	387.91
427.50	395.11
427.87	402.67
428.24	410.22
428.61	417.64
428.99	425.68
429.36	434.64
429.73	443.36
430.10	452.10
430.47	461.01
430.85	470.34
431.22	480.03
431.59	490.37
431.96	500.35
432.33	511.48
432.70	522.32
433.08	535.07
433.45	546.98
433.82	558.98
434.19	572.33
434.56	585.16
434.93	597.79
435.30	610.41
435.68	624.38
436.05	638.05
436.42	651.82
436.79	664.56
437.16	678.03
437.53	692.36
437.90	706.65
438.27	720.74
438.64	735.27
439.01	748.90
439.38	761.17
439.75	772.99
440.13	786.35
440.50	798.87
440.87	809.42
441.24	820.30
441.61	832.28
441.98	841.18
442.35	851.80
442.72	862.24
443.09	872.28
443.46	878.57
443.83	883.00
444.20	887.01
444.57	892.29
444.94	895.07
445.31	897.85
445.68	900.09
446.05	901.22
446.42	900.53
446.79	899.34
447.16	897.85
447.53	896.63
447.90	891.73
448.27	886.79
448.64	879.46
449.01	874.31
449.37	865.12
449.74	856.27
450.11	845.43
450.48	833.87
450.85	822.02
451.22	811.97
451.59	802.51
451.96	793.23
452.33	781.10
452.70	770.23
453.07	757.08
453.43	744.09
453.80	731.31
454.17	718.83
454.54	707.35
454.91	695.08
455.28	683.12
455.65	672.00
456.02	660.71
456.38	651.40
456.75	639.72
457.12	630.02
457.49	620.32
457.86	611.21
458.23	603.22
458.59	594.58
458.96	585.79
459.33	578.05
459.70	570.21
460.07	564.00
460.43	556.59
460.80	549.80
461.17	543.80
461.54	537.74
461.91	531.95
462.27	525.76
462.64	520.56
463.01	515.01
463.38	509.47
463.74	504.17
464.11	499.46
464.48	495.35
464.85	490.89
465.21	487.45
465.58	483.85
465.95	479.41
466.32	475.83
466.68	472.15
467.05	468.42
467.42	464.73
467.78	460.85
468.15	457.23
468.52	454.73
468.88	451.25
469.25	448.11
469.62	445.68
469.98	443.09
470.35	440.57
470.72	438.16
471.08	435.63
471.45	433.49
471.82	431.16
472.18	428.63
472.55	426.88
472.92	424.87
473.28	423.03
473.65	421.40
474.02	419.63
474.38	418.16
474.75	417.04
475.11	415.80
475.48	414.86
475.85	414.22
476.21	413.26
476.58	412.64
476.94	412.17
477.31	411.47
477.67	410.89
478.04	410.53
478.41	410.26
478.77	410.29
479.14	410.04
479.50	410.19
479.87	410.54
480.23	410.90
480.60	411.12
480.96	411.40
481.33	412.07
481.69	412.70
482.06	413.24
482.42	413.73
482.79	414.36
483.15	415.32
483.52	416.45
483.88	417.48
484.25	418.48
484.61	419.66
484.98	420.94
485.34	422.53
485.71	424.22
486.07	426.00
486.44	427.57
486.80	429.56
487.17	431.52
487.53	433.71
487.90	435.95
488.26	438.32
488.62	440.78
488.99	443.14
489.35	445.70
489.72	448.57
490.08	451.51
490.44	454.50
490.81	457.63
491.17	460.63
491.54	464.18
491.90	467.67
492.26	471.37
492.63	475.04
492.99	478.75
493.36	482.69
493.72	486.84
494.08	491.14
494.45	495.55
494.81	500.09
495.17	504.52
495.54	509.31
495.90	514.17
496.26	519.09
496.63	524.06
496.99	529.47
497.35	534.82
497.72	540.40
498.08	545.98
498.44	551.35
498.80	557.23
499.17	562.97
499.53	568.88
499.89	574.88
500.26	581.02
500.62	587.00
500.98	593.31
501.34	599.57
501.71	606.00
502.07	612.39
502.43	618.68
502.79	625.37
503.16	631.69
503.52	638.28
503.88	644.94
504.24	651.51
504.60	657.85
504.97	664.30
505.33	670.72
505.69	677.49
506.05	684.32
506.41	691.00
506.78	697.54
507.14	704.02
507.50	710.49
507.86	716.85
508.22	723.53
508.59	729.41
508.95	735.79
509.31	741.92
509.67	748.00
510.03	754.10
510.39	759.77
510.75	765.62
511.12	771.24
511.48	776.57
511.84	782.04
512.20	787.32
512.56	792.65
512.92	797.77
513.28	802.76
513.64	807.39
514.00	811.65
514.37	815.79
514.73	820.04
515.09	823.95
515.45	827.90
515.81	831.42
516.17	835.02
516.53	838.03
516.89	841.27
517.25	844.32
517.61	847.20
517.97	849.91
518.33	852.25
518.69	854.48
519.05	856.87
519.41	858.76
519.77	860.78
520.13	862.53
520.49	863.91
520.85	865.18
521.21	866.60
521.57	868.11
521.93	869.02
522.29	869.90
522.65	870.47
523.01	871.00
523.37	871.33
523.73	872.00
524.09	872.15
524.45	871.97
524.81	871.85
525.17	871.53
525.53	871.37
525.89	871.08
526.25	870.70
526.61	870.00
526.97	869.54
527.33	869.06
527.68	868.65
528.04	868.26
528.40	867.26
528.76	866.41
529.12	865.33
529.48	864.65
529.84	863.71
530.20	863.01
530.56	861.94
530.91	861.21
531.27	860.17
531.63	859.50
531.99	858.71
532.35	857.55
532.71	856.49
533.07	855.40
533.42	854.62
533.78	853.79
534.14	853.13
534.50	852.32
534.86	851.43
535.21	850.15
535.57	849.00
535.93	848.06
536.29	847.21
536.65	846.50
537.00	845.80
537.36	845.10
537.72	844.35
538.08	843.95
538.44	843.19
538.79	842.55
539.15	841.75
539.51	841.38
539.87	841.30
540.22	840.92
540.58	840.78
540.94	840.20
541.29	839.68
541.65	839.08
542.01	838.93
542.37	838.61
542.72	838.41
543.08	838.04
543.44	838.14
543.79	837.61
544.15	837.35
544.51	837.30
544.87	837.04
545.22	837.02
545.58	836.79
545.94	836.63
546.29	836.29
546.65	835.98
547.01	835.57
547.36	835.31
547.72	835.35
548.07	835.13
548.43	835.17
548.79	835.28
549.14	835.54
549.50	835.65
549.86	835.73
550.21	835.80
550.57	836.34
550.92	836.59
551.28	837.17
551.64	837.38
551.99	837.69
552.35	838.23
552.70	838.45
553.06	838.88
553.41	839.23
553.77	840.03
554.13	840.89
554.48	841.64
554.84	842.31
555.19	843.34
555.55	844.47
555.90	845.55
556.26	846.65
556.61	847.37
556.97	848.00
557.32	848.94
557.68	850.14
558.03	851.37
558.39	852.40
558.74	853.72
559.10	854.93
559.45	855.99
559.81	857.44
560.16	858.85
560.52	860.21
560.87	861.99
561.23	863.66
561.58	865.69
561.94	867.46
562.29	868.97
562.64	870.54
563.00	871.91
563.35	873.27
563.71	874.57
564.06	876.13
564.42	877.52
564.77	878.72
565.12	880.13
565.48	881.69
565.83	883.32
566.19	884.89
566.54	886.77
566.89	888.35
567.25	889.72
567.60	891.26
567.96	892.69
568.31	893.87
568.66	894.85
569.02	895.64
569.37	896.46
569.72	897.43
570.08	898.12
570.43	898.93
570.78	899.84
571.14	900.70
571.49	901.59
571.84	902.83
572.20	903.99
572.55	904.96
572.90	905.38
573.26	905.94
573.61	906.29
573.96	906.41
574.31	906.67
574.67	906.79
575.02	906.68
575.37	906.88
575.72	907.20
576.08	907.51
576.43	907.31
576.78	907.56
577.13	907.91
577.49	908.37
577.84	908.71
578.19	909.07
578.54	909.37
578.90	909.58
579.25	909.37
579.60	908.99
579.95	908.30
580.30	908.14
580.66	908.08
581.01	908.02
581.36	907.91
581.71	907.73
582.06	907.70
582.42	907.66
582.77	907.15
583.12	906.56
583.47	906.28
583.82	906.14
584.17	905.37
584.53	904.71
584.88	903.80
585.23	903.01
585.58	902.03
585.93	900.80
586.28	899.71
586.63	898.71
586.98	897.78
587.34	897.23
587.69	895.94
588.04	894.53
588.39	892.92
588.74	891.12
589.09	889.69
589.44	888.26
589.79	886.97
590.14	885.83
590.49	884.19
590.84	882.44
591.19	880.95
591.54	879.51
591.89	877.41
592.25	875.78
592.60	873.53
592.95	871.47
593.30	869.62
593.65	867.69
594.00	865.83
594.35	864.93
594.70	862.94
595.05	861.41
595.40	859.50
595.75	857.59
596.10	856.19
596.45	854.26
596.80	852.02
597.15	849.69
597.50	847.44
597.85	845.75
598.19	843.73
598.54	841.36
598.89	839.04
599.24	837.37
599.59	835.30
599.94	833.50
600.29	831.49
600.64	829.46
600.99	827.21
601.34	825.08
601.69	821.95
602.04	819.59
602.39	817.06
602.74	814.88
603.08	812.76
603.43	810.51
603.78	808.39
604.13	806.50
604.48	804.52
604.83	802.56
605.18	800.47
605.53	798.41
605.87	796.74
606.22	795.62
606.57	794.49
606.92	793.29
607.27	792.43
607.62	791.68
607.96	790.71
608.31	789.86
608.66	788.58
609.01	787.21
609.36	785.78
609.70	784.25
610.05	782.47
610.40	780.76
610.75	778.78
611.10	776.92
611.44	774.47
611.79	772.40
612.14	770.03
612.49	767.31
612.83	764.59
613.18	761.72
613.53	758.31
613.88	754.53
614.22	750.69
614.57	746.51
614.92	742.10
615.27	738.16
615.61	734.08
615.96	730.36
616.31	726.62
616.65	723.13
617.00	719.70
617.35	716.44
617.70	713.25
618.04	710.03
618.39	706.83
618.74	703.97
619.08	700.76
619.43	697.70
619.78	694.80
620.12	691.89
620.47	688.98
620.82	686.23
621.16	683.40
621.51	680.83
621.85	678.25
622.20	675.80
622.55	673.09
622.89	670.69
623.24	668.23
623.59	665.73
623.93	663.06
624.28	660.26
624.62	657.55
624.97	654.70
625.32	651.81
625.66	648.95
626.01	646.25
626.35	643.83
626.70	641.22
627.04	638.96
627.39	636.34
627.73	633.87
628.08	631.13
628.43	628.40
628.77	625.51
629.12	622.66
629.46	620.18
629.81	617.48
630.15	614.62
630.50	611.84
630.84	609.16
631.19	606.48
631.53	603.95
631.88	601.25
632.22	598.69
632.57	596.34
632.91	593.76
633.26	591.02
633.60	588.07
633.95	585.22
634.29	582.12
634.64	579.43
634.98	576.47
635.32	573.73
635.67	571.29
636.01	568.75
636.36	566.24
636.70	563.54
637.05	561.08
637.39	558.45
637.73	555.84
638.08	553.43
638.42	550.96
638.77	548.60
639.11	546.12
639.45	543.59
639.80	541.00
640.14	538.58
640.49	536.34
640.83	534.08
641.17	531.95
641.52	529.86
641.86	527.63
642.20	525.73
642.55	523.63
642.89	521.39
643.23	519.35
643.58	517.58
643.92	515.50
644.26	513.33
644.61	511.41
644.95	509.35
645.29	507.18
645.64	505.09
645.98	503.06
646.32	501.18
646.66	499.05
647.01	497.05
647.35	495.20
647.69	493.20
648.04	491.28
648.38	489.25
648.72	487.28
649.06	485.36
649.41	483.15
649.75	481.17
650.09	479.25
650.43	477.19
650.78	474.83
651.12	472.76
651.46	470.77
651.80	468.88
652.14	467.10
652.49	465.31
652.83	463.38
653.17	461.11
653.51	458.97
653.85	457.16
654.20	455.18
654.54	453.13
654.88	451.19
655.22	449.18
655.56	447.29
655.90	445.37
656.25	443.45
656.59	441.78
656.93	439.98
657.27	438.18
657.61	436.34
657.95	434.73
658.29	432.85
658.64	431.10
658.98	429.13
659.32	427.13
659.66	425.27
660.00	423.49
660.34	421.87
660.68	420.06
661.02	418.18
661.36	416.45
661.70	414.74
662.05	413.13
662.39	411.56
662.73	409.85
663.07	408.25
663.41	406.69
663.75	405.03
664.09	403.43
664.43	401.79
664.77	400.23
665.11	398.52
665.45	397.03
665.79	395.49
666.13	393.96
666.47	392.52
666.81	390.94
667.15	389.32
667.49	387.91
667.83	386.67
668.17	385.30
668.51	383.93
668.85	382.50
669.19	381.08
669.53	379.66
669.87	378.25
670.21	376.81
670.55	375.38
670.89	374.15
671.23	372.85
671.57	371.48
671.91	370.23
672.25	369.08
672.58	368.01
672.92	366.76
673.26	365.65
673.60	364.43
673.94	363.30
674.28	362.26
674.62	361.12
674.96	359.81
675.30	358.67
675.64	357.57
675.97	356.50
676.31	355.31
676.65	354.23
676.99	353.30
677.33	352.20
677.67	351.13
678.01	349.85
678.34	348.75
678.68	347.77
679.02	346.70
679.36	345.71
679.70	344.59
680.04	343.58
680.37	342.42
680.71	341.33
681.05	340.32
681.39	339.32
681.73	338.25
682.06	337.36
682.40	336.50
682.74	335.52
683.08	334.65
683.42	333.76
683.75	332.83
684.09	331.83
684.43	330.95
684.77	330.00
685.10	329.11
685.44	328.17
685.78	327.29
686.12	326.38
686.45	325.37
686.79	324.41
687.13	323.63
687.46	322.86
687.80	322.14
688.14	321.28
688.48	320.47
688.81	319.67
689.15	318.90
689.49	318.06
689.82	317.30
690.16	316.37
690.50	315.55
690.83	314.76
691.17	313.85
691.51	312.99
691.84	312.24
692.18	311.38
692.52	310.63
692.85	309.86
693.19	309.18
693.52	308.49
693.86	307.77
694.20	307.06
694.53	306.31
694.87	305.53
695.21	304.77
695.54	304.00
695.88	303.24
696.21	302.43
696.55	301.70
696.88	300.99
697.22	300.35
697.56	299.66
697.89	298.98
698.23	298.49
698.56	297.91
698.90	297.34
699.23	296.81
699.57	296.29
699.90	295.71
700.24	295.10
700.58	294.54
700.91	294.02
701.25	293.59
701.58	293.17
701.92	292.72
702.25	292.24
702.59	291.74
702.92	291.28
703.26	290.80
703.59	290.34
703.93	290.13
704.26	289.71
704.60	289.27
704.93	288.74
705.26	288.23
705.60	287.76
705.93	287.23
706.27	286.79
706.60	286.36
706.94	285.96
707.27	285.47
707.61	285.02
707.94	284.56
708.27	283.97
708.61	283.40
708.94	282.87
709.28	282.38
709.61	281.95
709.94	281.49
710.28	280.97
710.61	280.44
710.95	279.64
711.28	279.18
711.61	278.64
711.95	278.21
712.28	277.66
712.61	277.13
712.95	276.76
713.28	276.34
713.61	275.70
713.95	275.16
714.28	274.65
714.61	274.09
714.95	273.59
715.28	273.07
715.61	272.54
715.95	272.08
716.28	271.63
716.61	271.13
716.95	270.63
717.28	270.24
717.61	269.81
717.94	269.43
718.28	268.89
718.61	268.54
718.94	268.16
719.27	267.81
719.61	267.45
719.94	267.00
720.27	266.58
720.60	266.31
720.94	265.90
721.27	265.65
721.60	265.41
721.93	265.06
722.27	264.76
722.60	264.55
722.93	264.21
723.26	263.97
723.59	263.74
723.93	263.54
724.26	263.35
724.59	263.11
724.92	262.83
725.25	262.68
725.59	262.41
725.92	262.16
726.25	261.91
726.58	261.74
726.91	261.57
727.24	261.38
727.57	261.17
727.91	260.94
728.24	260.71
728.57	260.45
728.90	260.28
729.23	260.05
729.56	259.92
729.89	259.72
730.22	259.54
730.55	259.33
730.89	259.15
731.22	258.82
731.55	258.58
731.88	258.42
732.21	258.13
732.54	257.90
732.87	257.69
733.20	257.52
733.53	257.36
733.86	257.23
734.19	257.03
734.52	256.84
734.85	256.84
735.18	256.65
735.51	256.56
735.84	256.36
736.17	256.20
736.50	255.93
736.83	256.03
737.16	255.77
737.49	255.57
737.82	255.30
738.15	255.27
738.48	255.09
738.81	254.89
739.14	254.73
739.47	254.58
739.80	254.42
740.13	254.30
740.46	254.05
740.79	253.75
741.12	253.51
741.45	253.30
741.78	252.98
742.11	252.84
742.44	252.61
742.77	252.52
743.10	252.38
743.43	252.20
743.75	251.81
744.08	251.97
744.41	251.80
744.74	251.60
745.07	251.36
745.40	251.32
745.73	251.27
746.06	251.09
746.39	250.97
746.71	250.78
747.04	250.64
747.37	250.45
747.70	250.41
748.03	250.31
748.36	250.19
748.68	249.99
749.01	249.80
749.34	249.62
749.67	249.42
750.00	249.28
750.33	249.27
750.65	249.13
750.98	248.71
751.31	248.61
751.64	248.53
751.97	248.50
752.29	248.34
752.62	248.10
752.95	247.94
753.28	247.79
753.60	247.72
753.93	247.57
754.26	247.53
754.59	247.28
754.91	247.14
755.24	247.01
755.57	246.94
755.90	246.82
756.22	246.70
756.55	246.57
756.88	246.41
757.20	246.18
757.53	246.07
757.86	245.94
758.19	245.82
758.51	245.70
758.84	245.52
759.17	245.36
759.49	245.29
759.82	245.35
760.15	245.27
760.47	245.11
760.80	244.95
761.13	244.91
761.45	244.90
761.78	244.78
762.11	244.71
762.43	244.59
762.76	244.46
763.08	244.39
763.41	244.34
763.74	244.33
764.06	244.23
764.39	244.13
764.71	244.03
765.04	243.98
765.37	243.89
765.69	243.78
766.02	243.66
766.34	243.55
766.67	243.44
767.00	243.34
767.32	243.40
767.65	243.54
767.97	243.43
768.30	243.30
768.62	243.29
768.95	243.12
769.27	243.08
769.60	243.11
769.92	243.03
770.25	242.92
770.57	242.81
770.90	242.75
771.22	242.67
771.55	242.64
771.87	242.56
772.20	242.54
772.52	242.67
772.85	242.91
773.17	242.87
773.50	242.74
773.82	242.71
774.15	242.54
774.47	242.25
774.80	242.16
775.12	242.10
775.45	242.02
775.77	242.10
776.09	242.04
776.42	242.00
776.74	242.00
777.07	241.98
777.39	241.92
777.72	241.81
778.04	241.79
778.36	241.67
778.69	241.55
779.01	241.48
779.33	241.28
779.66	240.91
779.98	240.82
780.31	240.82
780.63	240.83
780.95	240.82
781.28	240.81
781.60	240.79
781.92	240.75
782.25	240.68
782.57	240.59
782.89	240.62
783.22	240.48
783.54	240.40
783.86	240.38
784.19	240.36
784.51	240.39
784.83	240.27
785.16	240.26
785.48	240.28
785.80	240.24
786.12	240.15
786.45	240.20
786.77	240.21
787.09	240.13
787.42	240.01
787.74	239.91
788.06	239.89
788.38	239.78
788.71	239.70
789.03	239.72
789.35	239.71
789.67	239.58
789.99	239.60
790.32	239.49
790.64	239.50
790.96	239.63
791.28	239.52
791.61	239.48
791.93	239.44
792.25	239.38
792.57	239.52
792.89	239.47
793.21	239.40
793.54	239.35
793.86	239.29
794.18	239.31
